timestamps,TP9,AF7,AF8,TP10,Right AUX,,,,,,,,,,,,,,,,
1533222560,59.105,28.32,15.137,12.207,54.199,,,,,,,,,,,,,,,,
1533222560,62.012,30.273,43.945,11.719,79.102,,,,,,,,,,,,,,,,
1533222560,44.922,30.273,-97.656,11.23,32.715,,,,,,,,,,,,,,,,
1533222560,28.809,27.832,-110.352,9.277,29.785,,,,,,,,,,,,,,,,
1533222560,36.156,28.809,-73.242,11.23,50.781,,,,,,,,,,,,,,,,
1533222560,57.617,36.133,-17.09,16.113,37.109,,,,,,,,,,,,,,,,
1533222560,74.219,38.574,42.48,27.832,20.02,,,,,,,,,,,,,,,,
1533222560,57.129,33.691,-30.273,34.18,28.32,,,,,,,,,,,,,,,,
1533222560,23.949,29.785,-101.074,13.184,64.941,,,,,,,,,,,,,,,,
1533222560,20.02,33.203,-92.285,9.277,40.527,,,,,,,,,,,,,,,,
1533222560,41.504,33.203,-24.902,15.625,-0.488,,,,,,,,,,,,,,,,
1533222560,51.758,29.785,68.359,14.16,37.598,,,,,,,,,,,,,,,,
1533222560,47.852,34.18,-29.297,21.973,55.176,,,,,,,,,,,,,,,,
1533222560,34.18,36.133,-122.07,17.578,59.57,,,,,,,,,,,,,,,,
1533222560,33.691,34.668,-84.473,12.207,81.543,,,,,,,,,,,,,,,,
1533222560,52.246,36.133,-20.996,20.508,-8.789,,,,,,,,,,,,,,,,
1533222560,62.012,40.039,21.973,21.973,-58.594,,,,,,,,,,,,,,,,
1533222560,51.781,36.133,-81.055,14.648,-9.277,,,,,,,,,,,,,,,,
1533222560,38.574,34.668,-115.234,16.113,37.598,,,,,,,,,,,,,,,,
1533222560,45.41,44.434,-64.941,21.484,18.555,,,,,,,,,,,,,,,,
1533222560,59.57,41.992,21.973,23.438,21.973,,,,,,,,,,,,,,,,
1533222560,68.359,37.598,62.012,21.484,69.824,,,,,,,,,,,,,,,,
1533222560,63.965,48.34,-47.852,20.508,33.203,,,,,,,,,,,,,,,,
1533222560,52.734,52.246,-147.949,20.02,14.16,,,,,,,,,,,,,,,,
1533222560,58.594,53.223,-100.586,18.555,10.742,,,,,,,,,,,,,,,,
1533222560,69.336,53.711,-47.852,21.484,28.32,,,,,,,,,,,,,,,,
1533222560,74.219,49.316,10.742,25.879,12.695,,,,,,,,,,,,,,,,
1533222560,73.73,47.363,24.414,30.273,41.504,,,,,,,,,,,,,,,,
1533222560,62.012,42.969,-127.441,32.227,83.008,,,,,,,,,,,,,,,,
1533222560,54.199,39.062,-127.93,33.203,85.938,,,,,,,,,,,,,,,,
1533222560,69.336,39.551,-56.152,30.762,62.988,,,,,,,,,,,,,,,,
1533222560,91.309,41.016,34.668,34.18,38.086,,,,,,,,,,,,,,,,
1533222560,95.332,39.551,36.621,37.598,-5.859,,,,,,,,,,,,,,,,
1533222560,71.777,39.062,-101.562,36.133,2.441,,,,,,,,,,,,,,,,
1533222560,72.754,37.109,-107.422,35.156,-1.465,,,,,,,,,,,,,,,,
1533222560,87.891,38.086,-22.461,31.25,1.953,,,,,,,,,,,,,,,,
1533222560,103.027,41.504,39.551,32.715,6.348,,,,,,,,,,,,,,,,
1533222560,102.539,34.668,7.812,34.18,3.418,,,,,,,,,,,,,,,,
1533222560,80.078,38.086,-97.168,36.133,41.016,,,,,,,,,,,,,,,,
1533222560,77.637,50.781,-90.82,44.434,-14.16,,,,,,,,,,,,,,,,
1533222560,94.145,61.523,-24.414,50.781,15.137,,,,,,,,,,,,,,,,
1533222560,107.91,66.406,32.227,58.105,87.891,,,,,,,,,,,,,,,,
1533222560,107.91,60.547,51.758,56.152,77.637,,,,,,,,,,,,,,,,
1533222560,96.68,62.012,-34.668,48.828,53.711,,,,,,,,,,,,,,,,
1533222560,86.426,69.336,-73.242,46.875,19.043,,,,,,,,,,,,,,,,
1533222560,82.379,64.453,-64.453,42.48,32.227,,,,,,,,,,,,,,,,
1533222560,105.957,62.012,-4.883,43.945,65.43,,,,,,,,,,,,,,,,
1533222560,113.77,69.336,81.543,49.805,25.391,,,,,,,,,,,,,,,,
1533222560,98.145,70.801,-29.297,55.664,28.32,,,,,,,,,,,,,,,,
1533222560,83.008,64.941,-80.078,49.316,57.129,,,,,,,,,,,,,,,,
1533222560,89.844,62.012,-66.406,40.039,16.602,,,,,,,,,,,,,,,,
1533222560,107.422,62.5,15.625,42.969,9.766,,,,,,,,,,,,,,,,
1533222560,110.352,54.688,41.016,45.898,-4.395,,,,,,,,,,,,,,,,
1533222560,88.379,46.387,-95.215,38.086,-34.668,,,,,,,,,,,,,,,,
1533222560,63.477,41.504,-116.211,32.715,-6.836,,,,,,,,,,,,,,,,
1533222560,64.941,37.598,-58.594,29.785,-8.789,,,,,,,,,,,,,,,,
1533222560,85.449,33.203,-23.438,28.32,-36.621,,,,,,,,,,,,,,,,
1533222560,88.379,29.785,41.016,30.762,-45.898,,,,,,,,,,,,,,,,
1533222560,72.754,28.809,-20.02,26.855,-12.695,,,,,,,,,,,,,,,,
1533222560,64.941,28.32,-128.906,21.973,25.879,,,,,,,,,,,,,,,,
1533222560,60.547,21.973,-99.121,18.555,60.059,,,,,,,,,,,,,,,,
1533222560,62.5,20.02,-14.16,14.648,80.566,,,,,,,,,,,,,,,,
1533222560,72.754,22.461,28.32,16.602,30.762,,,,,,,,,,,,,,,,
1533222560,58.105,19.043,-50.293,15.137,2.93,,,,,,,,,,,,,,,,
1533222560,40.527,16.113,-156.25,11.719,-30.762,,,,,,,,,,,,,,,,
1533222560,47.363,18.066,-117.188,10.742,-30.762,,,,,,,,,,,,,,,,
1533222560,57.617,17.09,-49.316,6.836,22.949,,,,,,,,,,,,,,,,
1533222560,69.824,16.602,20.996,10.742,-0.488,,,,,,,,,,,,,,,,
1533222560,70.312,18.066,34.18,15.625,-2.93,,,,,,,,,,,,,,,,
1533222560,53.223,20.996,-94.727,14.648,37.109,,,,,,,,,,,,,,,,
1533222560,45.41,17.578,-109.863,14.648,19.043,,,,,,,,,,,,,,,,
1533222560,57.617,17.09,-26.855,14.648,2.441,,,,,,,,,,,,,,,,
1533222560,71.289,23.438,41.992,20.508,42.48,,,,,,,,,,,,,,,,
1533222560,67.871,22.461,-21.484,19.043,7.324,,,,,,,,,,,,,,,,
1533222560,44.434,24.414,-111.328,13.672,-14.648,,,,,,,,,,,,,,,,
1533222560,34.668,31.25,-91.797,9.277,60.059,,,,,,,,,,,,,,,,
1533222560,54.688,31.25,-51.758,7.812,52.734,,,,,,,,,,,,,,,,
1533222560,67.871,27.344,11.719,9.766,24.414,,,,,,,,,,,,,,,,
1533222560,62.012,21.484,13.184,7.324,57.617,,,,,,,,,,,,,,,,
1533222560,45.41,25.391,-75.684,9.766,66.895,,,,,,,,,,,,,,,,
1533222560,35.645,34.668,-102.539,12.207,38.574,,,,,,,,,,,,,,,,
1533222560,40.039,32.715,-83.008,8.789,41.016,,,,,,,,,,,,,,,,
1533222560,55.664,31.25,7.324,12.207,37.109,,,,,,,,,,,,,,,,
1533222560,60.547,35.156,36.621,17.578,36.133,,,,,,,,,,,,,,,,
1533222560,46.387,33.691,-109.863,13.184,-17.09,,,,,,,,,,,,,,,,
1533222560,31.25,29.297,-94.727,0.977,-75.195,,,,,,,,,,,,,,,,
1533222560,36.133,30.273,-49.805,4.395,75.195,,,,,,,,,,,,,,,,
1533222560,58.594,32.227,-0.488,13.672,134.766,,,,,,,,,,,,,,,,
1533222560,63.965,24.902,56.641,25.391,32.227,,,,,,,,,,,,,,,,
1533222560,57.129,20.508,-97.168,35.645,-3.906,,,,,,,,,,,,,,,,
1533222560,44.922,33.203,-113.77,19.043,23.438,,,,,,,,,,,,,,,,
1533222560,44.434,40.039,-45.898,0.977,28.809,,,,,,,,,,,,,,,,
1533222560,66.895,39.062,28.32,4.883,0.488,,,,,,,,,,,,,,,,
1533222560,79.102,39.551,49.805,11.23,-5.859,,,,,,,,,,,,,,,,
1533222560,67.871,39.551,-58.105,7.324,46.387,,,,,,,,,,,,,,,,
1533222560,59.082,42.48,-107.91,12.207,80.566,,,,,,,,,,,,,,,,
1533222560,69.824,41.504,-84.473,20.508,73.73,,,,,,,,,,,,,,,,
1533222560,91.309,41.992,-15.137,27.344,52.734,,,,,,,,,,,,,,,,
1533222560,92.773,43.457,63.477,28.809,48.828,,,,,,,,,,,,,,,,
1533222560,74.219,38.574,-8.789,21.973,47.852,,,,,,,,,,,,,,,,
1533222560,71.289,35.156,-108.398,29.297,89.844,,,,,,,,,,,,,,,,
1533222560,80.566,33.691,-100.098,41.016,43.945,,,,,,,,,,,,,,,,
1533222560,93.262,28.809,-30.762,40.039,6.836,,,,,,,,,,,,,,,,
1533222560,95.703,28.809,61.523,40.527,45.898,,,,,,,,,,,,,,,,
1533222560,89.844,30.762,9.277,43.945,56.152,,,,,,,,,,,,,,,,
1533222560,75.684,29.785,-115.723,40.039,20.996,,,,,,,,,,,,,,,,
1533222560,74.707,35.645,-86.426,39.062,0.488,,,,,,,,,,,,,,,,
1533222560,89.355,33.691,12.695,41.504,3.906,,,,,,,,,,,,,,,,
1533222560,91.309,26.855,66.406,41.504,0,,,,,,,,,,,,,,,,
1533222560,90.332,26.367,-8.789,38.086,32.715,,,,,,,,,,,,,,,,
1533222560,79.102,28.809,-115.234,32.227,12.695,,,,,,,,,,,,,,,,
1533222560,67.871,27.344,-75.195,26.367,37.598,,,,,,,,,,,,,,,,
1533222560,76.172,27.344,4.883,26.367,15.137,,,,,,,,,,,,,,,,
1533222560,92.285,27.344,36.621,31.738,-41.992,,,,,,,,,,,,,,,,
1533222560,91.309,24.414,-2.441,33.203,-43.945,,,,,,,,,,,,,,,,
1533222560,70.312,21.484,-76.66,29.785,-34.668,,,,,,,,,,,,,,,,
1533222560,66.895,22.949,-63.477,31.25,-74.219,,,,,,,,,,,,,,,,
1533222560,72.266,24.902,-48.828,33.691,-42.969,,,,,,,,,,,,,,,,
1533222560,77.637,23.926,38.086,32.715,28.809,,,,,,,,,,,,,,,,
1533222560,74.219,24.414,73.242,31.25,17.09,,,,,,,,,,,,,,,,
1533222560,58.594,26.855,-85.938,31.738,-5.859,,,,,,,,,,,,,,,,
1533222560,48.828,24.902,-82.52,30.762,25.391,,,,,,,,,,,,,,,,
1533222560,56.152,24.902,-26.367,30.273,36.621,,,,,,,,,,,,,,,,
1533222560,84.473,25.879,50.781,38.086,27.832,,,,,,,,,,,,,,,,
1533222560,84.473,23.926,26.855,40.039,10.254,,,,,,,,,,,,,,,,
1533222560,61.523,21.484,-95.703,32.715,-29.297,,,,,,,,,,,,,,,,
1533222560,57.129,21.973,-71.289,27.344,0.977,,,,,,,,,,,,,,,,
1533222560,63.965,25.391,-25.879,25.879,24.414,,,,,,,,,,,,,,,,
1533222560,81.543,22.949,53.223,31.25,48.828,,,,,,,,,,,,,,,,
1533222560,89.355,21.484,123.047,38.086,107.422,,,,,,,,,,,,,,,,
1533222560,75.684,27.344,-47.363,39.551,77.637,,,,,,,,,,,,,,,,
1533222560,64.941,26.367,-94.238,33.203,71.289,,,,,,,,,,,,,,,,
1533222560,69.824,24.414,-65.43,27.832,52.734,,,,,,,,,,,,,,,,
1533222560,86.914,28.32,19.043,31.25,30.762,,,,,,,,,,,,,,,,
1533222560,88.867,26.367,61.035,30.762,47.852,,,,,,,,,,,,,,,,
1533222560,67.383,31.25,-37.109,31.738,43.457,,,,,,,,,,,,,,,,
1533222560,50.781,28.809,-95.703,27.832,54.688,,,,,,,,,,,,,,,,
1533222560,54.199,17.09,-98.633,20.02,-9.766,,,,,,,,,,,,,,,,
1533222560,71.289,19.531,25.391,22.949,43.457,,,,,,,,,,,,,,,,
1533222560,73.242,18.066,80.078,24.902,69.824,,,,,,,,,,,,,,,,
1533222560,55.176,15.137,-12.207,22.949,41.504,,,,,,,,,,,,,,,,
1533222560,47.852,19.531,-59.57,22.949,77.148,,,,,,,,,,,,,,,,
1533222560,54.199,22.461,-73.73,24.414,13.672,,,,,,,,,,,,,,,,
1533222560,73.242,22.461,16.602,31.25,-15.137,,,,,,,,,,,,,,,,
1533222560,83.496,18.555,86.914,45.41,29.297,,,,,,,,,,,,,,,,
1533222560,71.777,13.184,-19.043,51.758,44.434,,,,,,,,,,,,,,,,
1533222560,47.852,25.391,-85.449,34.668,17.09,,,,,,,,,,,,,,,,
1533222560,36.621,35.156,-28.809,20.02,12.207,,,,,,,,,,,,,,,,
1533222560,62.5,31.738,49.805,27.832,68.848,,,,,,,,,,,,,,,,
1533222560,92.773,39.062,68.359,41.504,28.809,,,,,,,,,,,,,,,,
1533222560,84.961,39.062,34.18,41.992,-25.879,,,,,,,,,,,,,,,,
1533222560,63.965,33.691,-22.461,35.156,-4.883,,,,,,,,,,,,,,,,
1533222560,66.406,39.551,-6.836,37.598,41.992,,,,,,,,,,,,,,,,
1533222560,80.078,38.574,0,36.621,60.547,,,,,,,,,,,,,,,,
1533222560,97.168,32.227,102.051,37.109,31.738,,,,,,,,,,,,,,,,
1533222560,100.586,32.715,127.441,43.457,-20.02,,,,,,,,,,,,,,,,
1533222560,79.102,32.715,-19.043,37.598,-21.973,,,,,,,,,,,,,,,,
1533222560,71.289,33.691,-1.465,35.645,46.387,,,,,,,,,,,,,,,,
1533222560,83.008,36.133,58.105,33.691,67.871,,,,,,,,,,,,,,,,
1533222560,93.262,35.156,136.719,36.621,5.859,,,,,,,,,,,,,,,,
1533222560,90.332,28.32,84.961,39.062,31.738,,,,,,,,,,,,,,,,
1533222560,72.754,29.297,-71.289,33.691,31.25,,,,,,,,,,,,,,,,
1533222560,65.43,36.621,-22.949,31.25,-8.301,,,,,,,,,,,,,,,,
1533222560,85.449,31.25,23.438,31.738,12.695,,,,,,,,,,,,,,,,
1533222560,106.934,27.832,92.285,36.133,75.684,,,,,,,,,,,,,,,,
1533222560,107.422,30.762,117.188,38.574,2.93,,,,,,,,,,,,,,,,
1533222560,91.309,31.25,-20.508,36.621,-56.152,,,,,,,,,,,,,,,,
1533222560,79.102,30.762,-37.598,31.25,50.781,,,,,,,,,,,,,,,,
1533222560,88.867,34.668,-25.879,34.18,27.344,,,,,,,,,,,,,,,,
1533222560,98.633,28.809,66.895,37.109,3.906,,,,,,,,,,,,,,,,
1533222561,96.68,27.832,65.43,39.062,23.926,,,,,,,,,,,,,,,,
1533222561,85.938,36.621,-37.109,39.062,51.758,,,,,,,,,,,,,,,,
1533222561,65.918,34.18,-72.754,35.156,59.57,,,,,,,,,,,,,,,,
1533222561,76.172,36.621,-53.223,36.621,20.508,,,,,,,,,,,,,,,,
1533222561,98.145,39.551,68.848,38.574,-0.488,,,,,,,,,,,,,,,,
1533222561,105.957,41.504,83.984,41.504,-20.996,,,,,,,,,,,,,,,,
1533222561,102.539,43.457,-34.18,41.016,-11.23,,,,,,,,,,,,,,,,
1533222561,87.402,41.992,-66.895,37.109,23.926,,,,,,,,,,,,,,,,
1533222561,86.426,45.898,-60.059,34.668,-12.695,,,,,,,,,,,,,,,,
1533222561,102.539,47.852,15.137,36.133,18.066,,,,,,,,,,,,,,,,
1533222561,104.492,45.898,99.121,36.133,24.414,,,,,,,,,,,,,,,,
1533222561,97.656,48.34,13.184,37.109,-17.578,,,,,,,,,,,,,,,,
1533222561,84.961,47.852,-75.684,37.598,51.27,,,,,,,,,,,,,,,,
1533222561,76.66,41.016,-55.176,29.297,55.176,,,,,,,,,,,,,,,,
1533222561,90.82,33.203,51.27,32.715,-8.301,,,,,,,,,,,,,,,,
1533222561,100.098,28.809,70.801,42.969,-41.016,,,,,,,,,,,,,,,,
1533222561,95.215,30.273,13.672,45.41,23.926,,,,,,,,,,,,,,,,
1533222561,90.332,37.598,-46.875,52.734,62.988,,,,,,,,,,,,,,,,
1533222561,79.102,37.598,-26.855,43.945,36.621,,,,,,,,,,,,,,,,
1533222561,80.566,34.18,-4.883,24.902,43.945,,,,,,,,,,,,,,,,
1533222561,94.238,36.133,67.383,29.297,60.059,,,,,,,,,,,,,,,,
1533222561,85.449,38.086,28.809,28.809,18.555,,,,,,,,,,,,,,,,
1533222561,74.707,42.48,-81.055,26.855,-25.391,,,,,,,,,,,,,,,,
1533222561,76.66,44.922,-40.039,30.273,0.977,,,,,,,,,,,,,,,,
1533222561,95.703,47.363,50.293,32.715,14.648,,,,,,,,,,,,,,,,
1533222561,106.445,47.852,109.375,37.598,34.668,,,,,,,,,,,,,,,,
1533222561,101.074,48.828,14.648,36.133,23.926,,,,,,,,,,,,,,,,
1533222561,89.844,48.828,-104.492,33.203,-7.324,,,,,,,,,,,,,,,,
1533222561,79.102,46.387,-53.223,31.738,14.16,,,,,,,,,,,,,,,,
1533222561,87.891,48.34,57.129,36.133,15.625,,,,,,,,,,,,,,,,
1533222561,100.586,45.898,120.117,39.551,38.086,,,,,,,,,,,,,,,,
1533222561,95.703,45.41,51.27,39.062,75.195,,,,,,,,,,,,,,,,
1533222561,82.52,48.828,-76.66,37.109,-17.09,,,,,,,,,,,,,,,,
1533222561,73.242,47.852,-30.762,30.762,-39.551,,,,,,,,,,,,,,,,
1533222561,80.078,49.316,-20.02,31.738,-2.441,,,,,,,,,,,,,,,,
1533222561,87.402,48.828,51.758,35.645,-1.465,,,,,,,,,,,,,,,,
1533222561,80.078,48.828,86.914,32.227,-16.602,,,,,,,,,,,,,,,,
1533222561,65.43,54.199,-42.48,32.227,-38.574,,,,,,,,,,,,,,,,
1533222561,54.688,48.828,-48.828,25.879,13.184,,,,,,,,,,,,,,,,
1533222561,63.965,46.875,-49.316,23.926,38.086,,,,,,,,,,,,,,,,
1533222561,79.59,51.27,67.383,27.832,45.898,,,,,,,,,,,,,,,,
1533222561,79.59,49.316,102.539,31.738,42.969,,,,,,,,,,,,,,,,
1533222561,66.895,51.27,-38.574,31.738,41.016,,,,,,,,,,,,,,,,
1533222561,53.223,50.293,-38.086,17.09,25.391,,,,,,,,,,,,,,,,
1533222561,56.641,45.41,-21.484,15.625,34.668,,,,,,,,,,,,,,,,
1533222561,72.266,46.387,50.293,26.855,24.902,,,,,,,,,,,,,,,,
1533222561,77.148,49.316,71.777,27.832,-66.406,,,,,,,,,,,,,,,,
1533222561,59.57,43.457,-34.668,25.391,-45.41,,,,,,,,,,,,,,,,
1533222561,47.852,41.016,-69.336,24.902,-23.926,,,,,,,,,,,,,,,,
1533222561,51.27,41.016,-38.086,27.344,-25.391,,,,,,,,,,,,,,,,
1533222561,64.941,37.598,42.969,33.691,15.625,,,,,,,,,,,,,,,,
1533222561,73.242,38.574,51.27,33.691,29.785,,,,,,,,,,,,,,,,
1533222561,65.43,38.086,-9.277,32.715,91.797,,,,,,,,,,,,,,,,
1533222561,57.617,38.574,-38.086,30.762,109.375,,,,,,,,,,,,,,,,
1533222561,62.5,41.504,-60.059,31.25,-4.395,,,,,,,,,,,,,,,,
1533222561,77.637,37.109,-2.93,38.086,-22.461,,,,,,,,,,,,,,,,
1533222561,90.332,32.715,88.867,45.898,44.434,,,,,,,,,,,,,,,,
1533222561,80.078,36.133,33.691,47.852,29.297,,,,,,,,,,,,,,,,
1533222561,54.688,41.504,-56.641,38.086,-2.441,,,,,,,,,,,,,,,,
1533222561,43.945,36.621,-43.945,31.738,-18.555,,,,,,,,,,,,,,,,
1533222561,71.777,35.645,47.363,37.109,-4.883,,,,,,,,,,,,,,,,
1533222561,100.098,41.992,107.91,40.527,19.043,,,,,,,,,,,,,,,,
1533222561,96.191,42.969,3.418,36.621,20.508,,,,,,,,,,,,,,,,
1533222561,81.543,44.922,-87.402,36.621,56.152,,,,,,,,,,,,,,,,
1533222561,76.66,43.945,-9.766,40.527,78.613,,,,,,,,,,,,,,,,
1533222561,95.703,46.875,14.16,37.598,5.371,,,,,,,,,,,,,,,,
1533222561,108.398,47.363,90.332,29.297,-36.133,,,,,,,,,,,,,,,,
1533222561,96.191,43.945,97.656,29.297,15.137,,,,,,,,,,,,,,,,
1533222561,76.172,42.969,-38.574,30.273,71.777,,,,,,,,,,,,,,,,
1533222561,66.406,41.016,-33.203,21.973,80.078,,,,,,,,,,,,,,,,
1533222561,76.66,39.062,5.371,20.02,63.477,,,,,,,,,,,,,,,,
1533222561,86.426,35.645,76.66,22.461,19.043,,,,,,,,,,,,,,,,
1533222561,74.219,32.227,64.941,19.043,27.832,,,,,,,,,,,,,,,,
1533222561,57.129,33.203,-58.105,19.531,41.016,,,,,,,,,,,,,,,,
1533222561,79.59,55.176,-37.598,37.598,36.133,,,,,,,,,,,,,,,,
1533222561,94.727,60.059,-9.277,41.504,66.406,,,,,,,,,,,,,,,,
1533222561,83.984,47.363,68.848,30.273,-12.207,,,,,,,,,,,,,,,,
1533222561,76.172,43.457,97.656,27.344,-31.738,,,,,,,,,,,,,,,,
1533222561,67.383,40.039,-41.504,21.484,16.113,,,,,,,,,,,,,,,,
1533222561,53.223,36.133,-46.387,19.043,-11.719,73.199164,36.500004,-15.460928,29.320296,19.10686983,11.31431046,65.178636,11.18810298,-0.227506713,0.523804514,0.168917273,-0.262817598,-0.444593044,0.268168214,-0.866531925,-0.30165869
1533222561,56.152,34.668,-14.16,20.508,11.23,73.187352,36.525396,-15.578116,29.3535,19.11060845,11.29159215,65.07726028,11.18466961,-0.218436983,0.52523377,0.174352868,-0.254013567,-0.455969343,0.281570465,-0.860267275,-0.310326408
1533222561,67.383,34.668,53.223,24.414,44.922,73.208836,36.542976,-15.541004,29.40428,19.120265,11.28025532,65.04831159,11.14591571,-0.21748561,0.521537919,0.179612671,-0.25302884,-0.460342046,0.288991459,-0.8552968,-0.290459494
1533222561,65.918,31.738,66.406,30.762,13.672,73.29282,36.548836,-14.884756,29.482408,19.11067276,11.27389494,65.08504401,11.0940496,-0.220516904,0.518377794,0.179269839,-0.2545346,-0.454612121,0.292815538,-0.858374972,-0.260241348
1533222561,45.898,25.879,-58.105,29.785,22.949,73.361176,36.541024,-14.675768,29.56444,19.03183587,11.27100318,65.08087181,11.03416002,-0.223549263,0.517587831,0.165022745,-0.262017327,-0.427662675,0.294879992,-0.865290274,-0.222519716
1533222561,33.691,31.25,-83.008,28.32,37.598,73.351316,36.550788,-14.714832,29.6328,18.90166704,11.27774394,64.85657716,10.95932053,-0.198690645,0.51719608,0.168709662,-0.264687534,-0.460264063,0.290203593,-0.855875387,-0.184689072
1533222561,41.992,38.086,-13.184,28.809,110.84,73.288816,36.5586,-14.699208,29.683584,18.92178518,11.27207811,64.89492383,10.89762484,-0.203013039,0.516244724,0.168480533,-0.268905825,-0.453645505,0.294363812,-0.858286609,-0.145904285
1533222561,54.199,37.109,52.734,24.414,94.238,73.208736,36.55274,-14.658192,29.669912,18.99961066,11.27246415,64.89481989,10.86389833,-0.206484449,0.514106305,0.167753493,-0.277754026,-0.469935723,0.292457799,-0.858437185,-0.114566016
1533222561,55.176,36.133,24.414,25.391,1.465,73.200924,36.562508,-14.439444,29.634756,19.0378263,11.271793,64.9343329,10.86838769,-0.196604734,0.515747696,0.167306991,-0.274047088,-0.489792818,0.294334754,-0.861854554,-0.120577929
1533222561,45.41,37.598,-57.617,29.297,-16.602,73.286768,36.59376,-14.265616,29.699208,19.04485037,11.27036111,64.97362088,10.8679552,-0.196146835,0.513389303,0.157758619,-0.264833436,-0.492659723,0.294197449,-0.868813878,-0.12368348
1533222561,40.039,39.062,-34.18,19.043,27.832,73.366844,36.617196,-14.033196,29.738272,18.86951774,11.26232164,64.79880763,10.81766521,-0.156366519,0.506983057,0.159403695,-0.272324847,-0.565613324,0.297412844,-0.859443812,-0.084765213
1533222561,45.41,36.621,-44.922,10.742,69.336,73.382468,36.630868,-14.113276,29.71874,18.68412967,11.26133342,64.62180789,10.76110708,-0.103032274,0.500976008,0.15684629,-0.263879628,-0.694914704,0.294294442,-0.846570255,-0.067815168
1533222561,63.477,36.133,8.301,17.578,-6.836,73.429344,36.65626,-14.353508,29.732412,18.65899462,11.25924635,64.64773001,10.79121566,-0.099439318,0.497695279,0.159981437,-0.26923102,-0.696187314,0.294264376,-0.849073329,-0.075340091
1533222561,72.754,38.574,80.566,17.578,-41.016,73.528952,36.673836,-13.914056,29.714832,18.61912836,11.25090041,64.4513208,10.77357506,-0.101960513,0.49289009,0.16440864,-0.267993427,-0.682230465,0.299041536,-0.830851636,-0.065785841
1533222561,61.035,42.48,-30.273,11.23,-18.066,73.636372,36.699224,-13.546868,29.68944,18.54822093,11.25044861,64.72299148,10.78986099,-0.108759569,0.488288147,0.154632739,-0.266135607,-0.658702353,0.29645546,-0.853183254,-0.079935781
1533222561,43.457,40.527,-66.895,6.348,20.996,73.675436,36.72266,-13.476556,29.666004,18.39656447,11.25638307,64.36634423,10.82594665,-0.090781903,0.481251439,0.159105959,-0.270838534,-0.662609391,0.285280305,-0.841058827,-0.093306015
1533222561,36.133,41.016,-64.453,1.465,0,73.610984,36.742192,-13.650384,29.589832,18.32161832,11.25823616,64.29812004,10.87019596,-0.074485949,0.474901332,0.159427485,-0.284265715,-0.685579733,0.279099392,-0.836583571,-0.083518489
1533222561,44.922,33.203,6.836,8.301,-0.488,73.542624,36.714848,-13.710932,29.535144,18.42535336,11.26144437,64.37722395,11.00056697,-0.090533141,0.469475279,0.165002732,-0.319209777,-0.676059237,0.272081364,-0.843993433,-0.054600555
1533222561,59.082,20.996,117.676,16.602,44.434,73.571828,36.6543,-12.916008,29.54296,18.50011083,11.26170648,64.35069778,11.07233545,-0.092365235,0.476558184,0.167496167,-0.325563512,-0.69229681,0.276450412,-0.840085046,-0.082548049
1533222561,50.293,28.809,-11.719,9.277,20.02,73.618704,36.630864,-12.501948,29.515616,18.47136058,11.30545401,64.74172941,11.06246963,-0.092900922,0.476363059,0.165738992,-0.325174554,-0.683466658,0.251036601,-0.836904059,-0.076872823
1533222561,32.227,33.203,-114.258,-3.418,76.172,73.565972,36.58594,-12.699216,29.416008,18.39690756,11.31565631,64.41491353,11.10416882,-0.08206891,0.480011886,0.16505973,-0.331526683,-0.687669481,0.244157721,-0.822680204,-0.087593451
1533222561,43.945,36.621,-59.082,-5.371,94.238,73.503472,36.564456,-13.023436,29.300772,18.49671118,11.30684339,64.65123304,11.28669375,-0.103133483,0.491707385,0.158859491,-0.388131481,-0.658287841,0.26134347,-0.829492823,0.009006333
1533222561,73.73,38.086,57.129,-0.488,58.594,73.524956,36.566408,-13.042968,29.212884,18.57044452,11.30163163,64.67989209,11.49315389,-0.106427942,0.497693737,0.171691277,-0.448954681,-0.672056503,0.271038946,-0.829309717,0.122066979
1533222561,86.426,39.551,85.449,3.906,4.883,73.6148,36.531252,-12.509764,29.146476,18.56757563,11.301853,64.65787546,11.63628723,-0.109890374,0.497148952,0.171623643,-0.476442124,-0.670110478,0.270431673,-0.827852582,0.130379546
1533222561,67.871,41.504,-33.203,4.883,-12.207,73.675348,36.488284,-12.05078,29.085928,18.57547153,11.27872856,64.91877831,11.73313586,-0.122469401,0.505109546,0.159485103,-0.486593348,-0.671198868,0.299110718,-0.847426994,0.103503967
1533222561,48.34,43.457,-102.051,0.977,-3.418,73.634332,36.44922,-12.05664,29.015616,18.53175441,11.23901214,64.36059476,11.81916285,-0.127548208,0.51132899,0.179696798,-0.493714479,-0.653765408,0.338799766,-0.856649857,0.07424221
1533222561,39.551,39.551,-52.246,-9.277,-24.902,73.515192,36.39258,-12.074216,28.892572,18.57656107,11.19750831,64.3687544,11.9337925,-0.128054035,0.515048173,0.179372142,-0.511927117,-0.665403738,0.376443391,-0.856689597,0.068092832
1533222561,42.48,32.715,-8.789,-12.695,37.109,73.388236,36.326176,-12.15234,28.738276,18.6993456,11.14553485,64.37916669,12.1680419,-0.130745668,0.522703163,0.179821743,-0.577559698,-0.685308976,0.427543149,-0.857668748,0.214368322
1533222561,52.734,34.18,47.852,-12.695,46.387,73.304252,36.273444,-12.058588,28.566404,18.80200945,11.11764784,64.3632165,12.44776111,-0.12640244,0.53820423,0.183446421,-0.652921885,-0.70945178,0.467815418,-0.854677069,0.41058166
1533222561,45.41,35.156,0.488,-11.23,-16.113,73.237844,36.242192,-11.546872,28.392576,18.84731417,11.0963326,64.43372461,12.72014473,-0.117345215,0.551670469,0.180974294,-0.710925653,-0.728059986,0.501316026,-0.86262729,0.547627064
1533222561,24.902,32.227,-118.164,-4.395,-17.09,73.120656,36.214852,-11.507808,28.242184,18.91638369,11.08839886,64.0203709,12.96450486,-0.117567806,0.560483529,0.1840602,-0.748118348,-0.744414378,0.517277826,-0.855711157,0.608320994
1533222561,24.902,34.668,-94.238,-6.836,0,72.94292,36.19532,-11.660152,28.091792,19.12440842,11.08984454,63.95201397,13.125552,-0.15661017,0.567461279,0.188445241,-0.749568938,-0.682822083,0.521127763,-0.860186378,0.557100431
1533222561,41.504,36.621,-54.688,-3.906,58.105,72.7437,36.17774,-12.017576,27.939448,19.3646911,11.08824513,64.10397369,13.31065699,-0.185567534,0.572912755,0.186960691,-0.758684112,-0.646777085,0.527231766,-0.868532902,0.524135017
1533222561,60.059,37.109,47.363,2.93,86.914,72.602608,36.167972,-11.974608,27.800776,19.43106389,11.08405469,64.09373474,13.4578345,-0.173231482,0.578026523,0.20116138,-0.754618782,-0.662216804,0.536187903,-0.863065956,0.466705785
1533222561,62.988,39.551,29.785,6.348,31.25,72.567452,36.169928,-11.44922,27.681636,19.39441482,11.08214587,64.13006304,13.53629531,-0.159743038,0.580879064,0.200241171,-0.737594034,-0.656085686,0.540691273,-0.866871824,0.401699044
1533222561,42.48,39.551,-95.703,3.906,-1.953,72.446356,36.179696,-11.402344,27.556636,19.40388094,11.08270186,63.93089069,13.59361982,-0.154522316,0.580300965,0.189533567,-0.718640717,-0.66163756,0.539573592,-0.861569436,0.342933391
1533222561,32.227,43.945,-68.359,6.836,37.598,72.2237,36.203132,-11.585936,27.45898,19.49695602,11.08460885,63.86449991,13.66808891,-0.148414315,0.577448957,0.192348901,-0.701271085,-0.687314994,0.535075555,-0.861607483,0.280599695
1533222561,49.805,46.875,-14.648,18.066,17.578,72.010812,36.224616,-11.802732,27.400384,19.63720732,11.09484457,63.96231487,13.72867702,-0.147717446,0.570831617,0.197310554,-0.684512984,-0.690492673,0.517968746,-0.870046359,0.223653447
1533222561,68.359,41.504,54.688,20.996,-19.043,71.874092,36.25196,-11.615228,27.347648,19.59036137,11.11033973,63.88009265,13.73741272,-0.137719945,0.565746831,0.206259712,-0.671829284,-0.692872844,0.497000206,-0.857785666,0.204419809
1533222561,70.801,40.527,19.531,14.648,33.203,71.836984,36.261724,-11.148432,27.261708,19.49549168,11.11490452,64.00656917,13.73658794,-0.134103115,0.558055135,0.200602023,-0.661237088,-0.675776617,0.485789259,-0.872641944,0.194739304
1533222561,47.852,39.551,-65.918,10.254,63.965,71.717844,36.216804,-11.048824,27.124988,19.48864131,11.11759396,63.80535535,13.74860642,-0.128788931,0.555206257,0.190610868,-0.644847623,-0.673603875,0.480482366,-0.864278642,0.169140221
1533222561,35.156,41.016,-78.613,12.695,83.984,71.481888,36.134776,-11.26562,26.972644,19.5440054,11.08132197,63.69982901,13.7471022,-0.116850512,0.563934689,0.192178552,-0.630539185,-0.694088383,0.523854784,-0.858904518,0.144067031
1533222561,50.781,46.387,-22.461,9.277,70.801,71.253372,36.0547,-11.484372,26.777332,19.62806172,10.96857048,63.83758023,13.69482905,-0.111204452,0.554742157,0.19644504,-0.629746234,-0.697760559,0.572625686,-0.869844178,0.132114118
1533222561,63.477,42.969,54.688,5.859,60.547,71.07564,35.984388,-11.472652,26.57616,19.53458528,10.81873896,63.78162075,13.59688024,-0.108500991,0.515255852,0.206029129,-0.657531171,-0.703235902,0.54307283,-0.860316106,0.083478607
1533222561,61.035,37.598,3.906,12.207,42.48,70.93306,35.886732,-11.318356,26.429676,19.40141094,10.71555037,63.79355641,13.53242437,-0.110611889,0.50287374,0.205931932,-0.678372044,-0.695464004,0.584533987,-0.861309102,0.033147547
1533222561,45.898,41.992,-47.363,10.742,56.641,70.770948,35.777356,-11.21484,26.285144,19.34337997,10.5878833,63.78387733,13.48872277,-0.09927419,0.489052925,0.198961464,-0.675212748,-0.682884013,0.629946095,-0.862038863,0.017421453
1533222561,36.133,39.062,-45.41,-4.395,60.059,70.585964,35.675792,-11.138668,26.097644,19.38280339,10.38015269,63.70392638,13.46232798,-0.084166485,0.416228308,0.197782417,-0.667310369,-0.695494951,0.506400696,-0.855676212,-0.002686769
1533222561,38.574,36.133,-63.477,-11.23,58.105,70.316432,35.572276,-11.373044,25.876944,19.4919466,10.22145598,63.6513762,13.56192745,-0.077632815,0.376712274,0.196394735,-0.664666198,-0.710529127,0.491415453,-0.851100272,-0.02997604
1533222561,48.828,36.621,20.996,-4.395,32.715,70.056664,35.441416,-11.615232,25.660144,19.46674163,10.08378489,63.73606975,13.71836499,-0.078348644,0.351276231,0.204488137,-0.684002686,-0.718804603,0.510650214,-0.857849284,0.002623526
1533222561,62.988,36.133,61.523,2.441,68.359,69.916036,35.302744,-11.251952,25.447252,19.31728564,9.853510656,63.49616755,13.76688873,-0.091165393,0.253774454,0.206200199,-0.693466844,-0.751373953,0.299497885,-0.840215647,-0.027277558
1533222561,51.758,36.621,-90.332,7.324,35.156,69.791036,35.189464,-11.292968,25.279284,19.23979842,9.594425468,63.65420586,13.71245815,-0.082964144,0.115954385,0.193636451,-0.7168679,-0.735744829,-0.078736863,-0.859492237,-0.086413305
1533222561,36.621,35.645,-70.801,2.441,-16.113,69.578144,35.083996,-11.310548,25.128892,19.25590709,9.40846848,63.70201814,13.67604646,-0.067791314,0.032833336,0.192508894,-0.71640834,-0.743107839,-0.242292824,-0.861355024,-0.117047086
1533222561,51.27,38.574,-64.941,-1.465,39.551,69.353536,34.988292,-11.632812,24.951156,19.32739474,9.253085604,63.71789337,13.71974378,-0.058715399,-0.029624261,0.192521368,-0.700147954,-0.749302116,-0.342478307,-0.862479354,-0.159919943
1533222561,65.918,41.016,-17.09,7.324,-25.391,69.1758,34.933604,-11.865236,24.79686,19.21176818,9.090692479,63.7848181,13.7754043,-0.058871368,-0.110220304,0.20448417,-0.690595995,-0.755926955,-0.490393007,-0.865621304,-0.197800751
1533222561,63.965,40.527,106.445,10.742,-36.621,69.078144,34.910164,-11.058596,24.687484,19.03568288,9.012494411,63.69800834,13.75585654,-0.072753367,-0.135831851,0.214067648,-0.68243486,-0.762182584,-0.497536506,-0.852589668,-0.224545993
1533222561,54.688,39.062,-37.598,6.348,-8.789,69.042988,34.900396,-10.744144,24.582016,18.999361,8.990179216,63.91476164,13.75847614,-0.061890722,-0.13635704,0.208383958,-0.665967014,-0.75046672,-0.483941991,-0.85733101,-0.247695935
1533222561,43.457,36.621,-127.441,4.395,-58.594,68.957052,34.896488,-11.019532,24.480456,19.01788931,8.98431084,63.58789521,13.7976972,-0.057769994,-0.134537362,0.214671723,-0.64749091,-0.758499853,-0.478874231,-0.847282247,-0.28737824
1533222561,50.293,38.574,-42.969,4.883,-46.875,68.816428,34.917972,-11.097656,24.386708,19.08492104,8.983345158,63.94404154,13.85258033,-0.053260656,-0.133346326,0.201218087,-0.630396587,-0.778154004,-0.478039186,-0.847894839,-0.33133211
1533222561,67.383,38.086,18.555,0.488,23.926,68.732444,34.951176,-11.1875,24.265612,19.09243392,8.985701017,63.9712001,13.90569536,-0.037314208,-0.140167438,0.204180451,-0.614229242,-0.781690468,-0.4792839,-0.850354562,-0.373333209
1533222561,75.684,37.598,93.262,0.488,24.902,68.744164,34.986332,-10.734372,24.160144,19.05217255,8.981993644,63.91346198,13.98156565,-0.028604553,-0.150587537,0.207195103,-0.598692715,-0.76777521,-0.473255604,-0.842900317,-0.417267635
1533222561,71.289,35.645,23.438,0,72.754,68.769556,35.015632,-10.124996,24.072252,19.05555725,8.975053917,64.25126626,14.06117577,-0.030290831,-0.16138174,0.200019006,-0.585498975,-0.769248578,-0.463714673,-0.865978464,-0.460644474
1533222561,62.012,34.668,-104.492,-3.906,29.785,68.775416,35.066412,-10.14648,23.982408,19.0546985,8.965154733,63.84715878,14.14333497,-0.034283089,-0.170134571,0.201265776,-0.576726389,-0.76867027,-0.451395668,-0.866812256,-0.499754164
1533222561,59.082,38.086,-54.688,-4.883,-4.395,68.761744,35.138676,-10.308592,23.904284,19.05238475,8.926853985,63.87812154,14.2494658,-0.035080947,-0.176910597,0.199886122,-0.5752773,-0.767602778,-0.421599257,-0.866648938,-0.528425371
1533222561,65.918,35.645,35.645,-4.883,49.805,68.7344,35.191412,-10.279292,23.818344,19.05813159,8.877549336,63.93974502,14.35400485,-0.033267871,-0.184622035,0.205608679,-0.578149609,-0.770211407,-0.391215029,-0.871953582,-0.547123683
1533222561,76.66,37.109,81.055,-0.488,110.352,68.80862,35.263676,-9.7539,23.755844,19.05728464,8.841020515,63.95919278,14.46181294,-0.028983765,-0.193021317,0.204645448,-0.578754952,-0.769996086,-0.360158262,-0.874418451,-0.570399856
1533222561,68.848,44.922,-7.812,5.371,80.078,68.921904,35.378912,-9.160148,23.730452,19.05185254,8.782134957,64.16831701,14.53306994,-0.039795392,-0.196603481,0.190545234,-0.575354702,-0.767148595,-0.328514361,-0.892955629,-0.596916684
1533222561,58.594,49.316,-74.219,5.371,42.969,68.966828,35.503912,-8.988272,23.708968,18.96702289,8.718618471,63.49051038,14.55970619,-0.044972898,-0.192497819,0.21816335,-0.572792016,-0.745741536,-0.32903811,-0.925384793,-0.610261883
1533222561,55.176,46.387,-78.613,0.977,20.02,68.957064,35.6211,-9.10546,23.685532,18.92901728,8.693385279,63.25461503,14.58289286,-0.047098043,-0.189007789,0.228157003,-0.570827007,-0.733426798,-0.325226731,-0.926675684,-0.621340948
1533222561,59.082,44.434,-5.371,4.395,-32.227,68.914096,35.732428,-9.210928,23.660144,18.93552373,8.641475161,63.35668386,14.61479119,-0.046182253,-0.186190608,0.228321039,-0.57125227,-0.73606255,-0.324827702,-0.933218395,-0.629326381
1533222561,63.965,48.828,102.051,12.695,20.508,68.888708,35.855476,-8.939444,23.648424,18.94573358,8.574488336,63.32831344,14.64285216,-0.039822573,-0.181279279,0.23323064,-0.569191226,-0.741112426,-0.325554666,-0.928095029,-0.641875018
1533222561,58.105,52.246,14.16,20.02,-13.672,68.908236,35.980476,-8.503896,23.669912,18.94810527,8.540606252,63.65968644,14.65047983,-0.035829357,-0.176592588,0.237042297,-0.566912842,-0.742448584,-0.325791392,-0.938374316,-0.647786726
1533222561,45.41,46.875,-74.707,16.113,27.832,68.908236,36.097664,-8.363272,23.675772,18.93440604,8.550930768,63.44250845,14.64116242,-0.037481182,-0.170408302,0.228927955,-0.571555429,-0.73714669,-0.312026923,-0.929857393,-0.638875932
1533222561,39.551,42.48,-99.121,10.742,31.738,68.835972,36.199224,-8.652336,23.660148,18.93440604,8.498308857,63.25562524,14.63782978,-0.037481182,-0.165661669,0.236255071,-0.57276575,-0.73714669,-0.315146166,-0.929202546,-0.636062084
1533222561,57.129,44.434,-28.809,15.137,24.414,68.779332,36.283208,-8.93554,23.638664,19.01198851,8.421610283,63.50509541,14.64958432,-0.03958689,-0.158392178,0.235530174,-0.570001381,-0.752272357,-0.313177324,-0.940757709,-0.644328807
1533222561,69.336,41.992,57.129,17.578,60.059,68.785192,36.361332,-8.621088,23.632804,19.02573874,8.398497616,63.43617036,14.65816143,-0.031449876,-0.171927407,0.247610122,-0.565324528,-0.758714983,-0.294828425,-0.928893093,-0.652842626
1533222561,60.547,41.016,-8.789,11.719,30.762,68.849644,36.42774,-8.210932,23.624992,19.02568345,8.360157668,63.56842184,14.66029874,-0.032381074,-0.182978985,0.23568357,-0.564029808,-0.758648571,-0.267620907,-0.946473784,-0.655069316
1533222561,44.434,41.504,-118.652,6.836,0,68.888708,36.468756,-8.318352,23.615228,18.97007047,8.330760609,63.23299114,14.66614702,-0.034709862,-0.196383162,0.237185995,-0.562646342,-0.742435615,-0.239360042,-0.936918995,-0.659169352
1533222561,38.086,45.41,-96.68,5.371,33.203,68.8223,36.525396,-8.49804,23.605464,18.90935758,8.330408407,63.39815204,14.67654643,-0.026094552,-0.209410103,0.228337531,-0.561716884,-0.745130209,-0.234891677,-0.931701744,-0.664134939
1533222561,46.387,44.434,-57.617,5.371,61.523,68.736364,36.593756,-8.775384,23.587884,18.98841662,8.342911466,63.58515148,14.68790979,-0.030781889,-0.223027212,0.225301373,-0.561119924,-0.756364549,-0.240979571,-0.939367502,-0.668706862
1533222561,57.129,41.016,33.691,4.395,4.883,68.716832,36.671884,-8.693356,23.576168,19.04128076,8.337393021,63.64779828,14.70715839,-0.023499116,-0.239404912,0.235824212,-0.55964718,-0.774207911,-0.228724839,-0.942134244,-0.67731071
1533222561,59.082,44.922,24.902,2.93,55.176,68.77152,36.750008,-8.291012,23.548824,19.05070821,8.286594389,63.68941365,14.72132636,-0.02110132,-0.24718983,0.232501445,-0.55913857,-0.778273935,-0.195456797,-0.948075131,-0.682434989
1533222561,50.781,48.34,-108.887,-0.488,44.434,68.832064,36.804696,-8.316404,23.498044,19.00309795,8.271867508,63.58213999,14.75339476,-0.023022109,-0.262790302,0.219875332,-0.557669909,-0.764376588,-0.175789973,-0.944596148,-0.694438559
1533222561,45.41,48.828,-57.617,2.441,26.367,68.853548,36.869148,-8.21484,23.472652,18.92106742,8.303183133,63.62118535,14.81431101,-0.01475379,-0.268672688,0.217835191,-0.555928971,-0.759879388,-0.196175272,-0.943472478,-0.713441589
1533222561,45.898,45.898,-58.594,1.465,24.414,68.814484,36.92774,-8.478512,23.429684,18.89126872,8.333790846,63.52165891,14.84503227,-0.011644709,-0.276476666,0.218714383,-0.554927816,-0.757914961,-0.211764101,-0.938132998,-0.723798887
1533222561,64.941,45.898,20.508,3.906,-43.457,68.83206,36.970708,-8.542964,23.374996,18.92871217,8.34561003,63.59366839,14.89323869,-0.011185763,-0.290173839,0.22843937,-0.552142408,-0.768081813,-0.214963503,-0.942271025,-0.741854044
1533222561,72.754,50.293,104.004,8.301,-16.602,68.937528,37.037116,-7.687496,23.355464,18.92304383,8.364084009,63.55593064,14.93984127,-0.013701831,-0.298758888,0.230850876,-0.544713177,-0.765458862,-0.228298188,-0.937212483,-0.766636983
1533222561,47.852,48.828,-54.199,5.859,65.43,69.003936,37.11524,-7.525384,23.374992,18.87084994,8.403752724,63.62597271,14.95640103,-0.023869664,-0.302076723,0.228181221,-0.54182044,-0.74810469,-0.245739945,-0.946200333,-0.776201525
1533222561,37.109,46.387,-94.238,1.465,68.359,69.00784,37.179696,-7.703116,23.363272,18.76661594,8.422271968,63.45471494,14.9302292,-0.007924733,-0.31389093,0.231161589,-0.541513012,-0.757158777,-0.246030253,-0.939359858,-0.770448317
1533222561,44.922,46.387,-28.809,-0.488,96.68,68.953152,37.236336,-7.8164,23.306632,18.75985067,8.431353384,63.63558165,14.94632936,-0.006679713,-0.32845014,0.228586792,-0.541856186,-0.758268273,-0.243954138,-0.947171069,-0.773628029
1533222561,65.918,48.34,51.27,3.906,63.477,68.960964,37.330088,-7.837884,23.220692,18.81019112,8.445498665,63.64789305,15.0098974,-0.005646332,-0.341022451,0.233683284,-0.538743244,-0.772004263,-0.248270882,-0.947066917,-0.794554504
1533222561,65.918,46.875,53.711,5.371,56.152,68.99612,37.435556,-7.234368,23.099596,18.80851666,8.438114815,63.62695145,15.05934066,-0.006845416,-0.353651147,0.233968298,-0.524862434,-0.771204824,-0.229732791,-0.9452679,-0.824897696
1533222561,46.387,48.828,-77.637,-0.488,80.566,69.00198,37.498056,-7.089836,23.021472,18.79452087,8.391663834,63.49164909,15.08073767,-0.011524697,-0.358997148,0.221683606,-0.507323946,-0.765026955,-0.209248536,-0.948993562,-0.848198679
1533222561,44.922,48.828,-108.398,-3.906,46.387,69.003932,37.533212,-7.339836,23.00194,18.78721155,8.418158357,63.28896101,15.15225624,-0.011019045,-0.367522598,0.230651553,-0.499776169,-0.763939996,-0.220384416,-0.951028818,-0.87572092
1533222561,52.246,44.434,-44.434,-2.441,16.602,68.945336,37.5547,-7.630852,22.972644,18.78467386,8.447115044,63.56571085,15.18390093,-0.010808712,-0.366683648,0.224078306,-0.502958761,-0.763635498,-0.239422506,-0.957651937,-0.873903257
1533222561,64.453,43.457,62.988,1.465,51.758,68.88674,37.570324,-7.57812,22.933584,18.81410341,8.457845539,63.56833845,15.22600735,-0.00419445,-0.370798069,0.236376293,-0.505046575,-0.775347081,-0.247981786,-0.953656217,-0.877871965
1533222561,68.359,43.457,118.652,6.836,59.082,68.888692,37.585948,-6.871092,22.931632,18.80515355,8.465152651,63.62162024,15.2687177,0.004529806,-0.374101191,0.235834181,-0.502557385,-0.771378448,-0.253852183,-0.957911183,-0.892432003
1533222561,58.105,45.898,-42.969,10.254,-15.625,68.884784,37.59962,-6.611328,22.92382,18.80507302,8.472424534,64.03864406,15.27075235,0.004216496,-0.377409466,0.230861341,-0.502388309,-0.771341525,-0.259638641,-0.962123756,-0.893247031
1533222561,50.781,43.945,-98.633,13.672,10.742,68.808612,37.609384,-6.667968,22.896476,18.80722059,8.483104902,63.75824583,15.2767591,0.004654255,-0.3778287,0.23697652,-0.501162488,-0.772231756,-0.26780106,-0.954941595,-0.896707288
1533222561,50.293,39.551,-53.223,12.695,28.32,68.644548,37.59962,-6.820312,22.83788,18.84193279,8.489019592,63.83393711,15.2872149,0.013262963,-0.379221002,0.2340364,-0.495606959,-0.785247599,-0.272644247,-0.955296908,-0.90562904
1533222561,61.035,40.039,42.48,17.09,35.156,68.517596,37.585948,-6.9043,22.791004,18.82378873,8.48536152,63.89964378,15.29816998,0.028893242,-0.376741057,0.238968991,-0.484259463,-0.780545825,-0.269926903,-0.960405124,-0.918571719
1533222561,67.383,37.598,61.035,24.902,36.621,68.490252,37.582044,-6.625004,22.80272,18.76734693,8.478636895,63.82062588,15.29775447,0.040738984,-0.373999989,0.240293433,-0.475487539,-0.7635747,-0.264515809,-0.953420404,-0.924335234
1533222561,55.664,38.086,-47.852,28.32,6.836,68.427752,37.593764,-6.38282,22.798812,18.76398635,8.478404815,63.96496576,15.29824707,0.045053451,-0.372644578,0.230316549,-0.477746399,-0.761727166,-0.264911822,-0.971128151,-0.923122204
1533222561,39.062,39.062,-83.984,24.414,32.715,68.261736,37.615248,-6.318364,22.732404,18.78064157,8.477062755,63.69212322,15.29670613,0.053694924,-0.376906961,0.237208817,-0.477238015,-0.768234488,-0.261077423,-0.965362625,-0.922830532
1533222561,43.457,40.039,-70.801,20.996,45.41,68.062516,37.660168,-6.47852,22.656232,18.85620198,8.47393746,63.60499725,15.25327745,0.063307249,-0.384574841,0.240717295,-0.475051416,-0.779091191,-0.253238423,-0.965262043,-0.915548891
1533222561,64.453,41.504,-2.93,20.996,4.883,67.937516,37.710948,-6.736332,22.578108,18.85410819,8.456816011,63.71710285,15.21400249,0.07662702,-0.398312487,0.243082864,-0.469563886,-0.775876607,-0.227013357,-0.973129329,-0.910161382
1533222561,72.754,38.574,87.402,19.043,46.387,67.869156,37.742196,-6.423832,22.4785,18.77353917,8.441555211,63.5710777,15.17195525,0.084804617,-0.413619753,0.252071934,-0.464527588,-0.754122394,-0.201546563,-0.955437642,-0.904296013
1533222561,80.078,47.363,3.418,29.785,34.18,67.886732,37.812508,-5.947268,22.437484,18.72450167,8.4301802,63.84155786,15.11274107,0.090099419,-0.424234323,0.246994474,-0.461569885,-0.736553606,-0.181806033,-0.976109635,-0.899740954
1533222561,76.172,53.711,-109.375,42.48,-41.016,67.892592,37.884772,-6.039064,22.451156,18.7339265,8.436848697,63.4659621,15.07876695,0.087952893,-0.439033469,0.249390156,-0.462404484,-0.74090172,-0.172673883,-0.971045745,-0.892917269
1533222561,42.48,41.016,-46.875,17.09,-8.789,67.705092,37.914072,-6.277344,22.3535,18.73629744,8.495376017,63.599289,15.09544136,0.087128454,-0.429145542,0.242981253,-0.459544777,-0.742089745,-0.185943508,-0.968672205,-0.893952952
1533222561,40.527,35.645,0.977,1.953,20.996,67.501964,37.949232,-6.53906,22.195296,18.7551907,8.493485395,63.64039708,15.05059234,0.100962212,-0.43917459,0.252660962,-0.452438489,-0.741020649,-0.177488034,-0.969584118,-0.890991395
1533222561,61.523,42.969,74.707,13.184,16.602,67.386728,38.01564,-6.205076,22.095688,18.77351017,8.465669107,63.47461208,15.05635247,0.113060183,-0.447130873,0.261042751,-0.438542659,-0.737925018,-0.144243702,-0.950707578,-0.910583061
1533222561,60.547,41.016,39.062,15.137,24.414,67.312508,38.064468,-5.587892,22.027328,18.72115656,8.439524595,63.68205228,15.03315643,0.125152862,-0.463779913,0.251046617,-0.426191045,-0.718262349,-0.107863222,-0.972373593,-0.913784995
1533222561,56.152,33.203,-92.773,20.508,26.855,67.265632,38.087904,-5.658204,22.003892,18.71130289,8.421337445,63.36805584,15.02575618,0.136155086,-0.478853064,0.247437928,-0.41470547,-0.711835431,-0.077213488,-0.976518309,-0.918057501
1533222561,45.898,29.297,-68.359,20.02,7.812,67.144536,38.095716,-5.951172,21.978504,18.72457278,8.39950761,63.45529282,15.02352935,0.142579392,-0.483402034,0.244612983,-0.410274063,-0.716486659,-0.051350225,-0.97802452,-0.919445886
1533222561,47.363,25.879,12.207,18.555,-44.434,66.964848,38.089856,-6.048828,21.925772,18.76459358,8.3903783,63.57539204,15.02148931,0.154775082,-0.483953514,0.253263387,-0.405438543,-0.725703125,-0.042613852,-0.985032342,-0.921126524
1533222561,63.965,29.785,76.172,21.973,-5.371,66.855472,38.11134,-5.734376,21.880852,18.73794953,8.398425394,63.52846919,15.01022644,0.169896648,-0.484420438,0.257350004,-0.396888447,-0.714696033,-0.048079274,-0.978173411,-0.921237835
1533222561,55.664,30.762,-21.973,17.578,61.523,66.79688,38.148452,-5.515628,21.832024,18.6749782,8.370122791,63.74060325,14.99313624,0.180348749,-0.483409322,0.248558291,-0.390909307,-0.691015577,-0.027783254,-0.999181668,-0.917709424
1533222561,36.621,31.738,-92.773,14.16,-0.488,66.675784,38.183608,-5.632812,21.763664,18.68706478,8.31650026,63.58988033,14.98716752,0.188585978,-0.476755181,0.245476668,-0.382213402,-0.694210291,-0.004132616,-0.989651883,-0.919749366
1533222561,32.227,34.668,-36.133,14.16,13.672,66.515628,38.222672,-5.582032,21.68554,18.78426445,8.270439336,63.72397311,14.98301258,0.188386184,-0.47437616,0.242143933,-0.370282471,-0.710236258,0.026625753,-0.993389485,-0.924754877
1533222561,45.41,33.203,-46.387,13.672,37.598,66.38672,38.25978,-5.919924,21.609368,18.90669915,8.230421194,63.69446506,14.9714862,0.18577493,-0.478986006,0.240887758,-0.357934793,-0.718644224,0.067976729,-0.991039179,-0.927387106
1533222561,65.43,31.25,44.434,17.578,31.25,66.351564,38.287124,-6.035156,21.55468,18.94040147,8.186499919,63.68594004,14.96358654,0.198946674,-0.47981589,0.254659825,-0.345350254,-0.724024425,0.106167519,-0.984840791,-0.931110897
1533222561,58.594,34.668,58.594,18.555,38.574,66.351564,38.318376,-5.457028,21.501948,18.933961,8.151408807,63.56808413,14.95319123,0.204477906,-0.478918529,0.255754695,-0.336174903,-0.7194748,0.135098683,-0.975993371,-0.931019116
1533222561,43.945,37.598,-86.426,17.09,41.504,66.332032,38.36916,-5.472652,21.44726,18.933961,8.12232813,63.49567021,14.94037507,0.204477906,-0.484787035,0.241431418,-0.327681575,-0.7194748,0.17227228,-0.98192346,-0.929444292
1533222561,42.969,39.551,-62.012,13.184,37.109,66.2793,38.427756,-5.615232,21.378904,18.954618,8.077674222,63.51518636,14.93136318,0.203437809,-0.493337819,0.240796665,-0.318268833,-0.723684969,0.22487188,-0.982257445,-0.929750816
1533222561,46.875,45.41,-9.766,12.695,27.344,66.128908,38.50588,-5.85742,21.27734,19.0013328,8.032596834,63.60222734,14.92991332,0.203430977,-0.504659666,0.243888464,-0.306038027,-0.735034249,0.280833052,-0.988766758,-0.934873027
1533222561,55.664,52.246,55.176,18.066,-0.977,66.013672,38.61916,-5.744136,21.189448,19.00554486,8.004989653,63.50181408,14.90214129,0.219366724,-0.521131951,0.25374424,-0.293646815,-0.729387308,0.324457521,-0.974498994,-0.933608142
1533222561,56.641,52.734,50.293,15.137,4.395,65.994144,38.74416,-5.160152,21.119136,18.98119571,7.998216389,63.58561206,14.85576728,0.234239528,-0.520244257,0.250383464,-0.286708726,-0.715181128,0.35497858,-0.983976013,-0.924794293
1533222561,43.945,52.734,-71.289,11.23,35.156,65.941408,38.867204,-5.160152,21.05468,18.98834428,7.973501203,63.42632222,14.84259032,0.236651892,-0.509873391,0.238772024,-0.275316854,-0.717460653,0.380858569,-0.986878036,-0.924106793
1533222561,33.691,56.152,-89.355,11.719,-4.395,65.820312,38.990248,-5.414056,20.99804,19.03132337,7.950969857,63.42632222,14.85043599,0.237545599,-0.500977272,0.238772024,-0.263248262,-0.728491267,0.407791867,-0.986878036,-0.932645413
1533222561,35.156,53.711,-9.766,6.348,9.766,65.634764,39.113296,-5.666012,20.898432,19.13995617,7.97955058,63.63629948,14.85896287,0.233294764,-0.481601168,0.239246031,-0.252410145,-0.741529504,0.444542512,-0.997453994,-0.940875335
1533222561,52.246,53.223,90.332,5.859,59.57,65.486328,39.240252,-5.796872,20.769524,19.21163393,7.96836802,63.52780876,14.87342124,0.241220555,-0.471780818,0.249283227,-0.236615856,-0.741834972,0.472622732,-0.982553407,-0.952785082
1533222561,62.5,56.152,120.605,11.719,23.926,65.433592,39.355484,-5.125,20.658196,19.17094248,7.939148475,63.29487746,14.86351074,0.257128264,-0.458320245,0.238377564,-0.221314461,-0.723230018,0.493806007,-0.998758094,-0.958530109
1533222561,48.34,51.27,-24.414,9.766,-28.32,65.367188,39.455096,-4.845704,20.564448,19.1609086,7.974773569,63.74179131,14.82645708,0.265230213,-0.443857834,0.23421362,-0.209419829,-0.71578771,0.5187638,-1.003151762,-0.954440028
1533222561,38.086,49.805,-38.086,5.859,40.527,65.240236,39.55666,-4.736328,20.476556,19.19136457,7.967411206,63.50228188,14.82091275,0.271572907,-0.45182348,0.234646973,-0.194587497,-0.724148906,0.545441371,-0.992534476,-0.957483335
1533222561,41.016,45.41,-7.812,7.324,89.844,65.056644,39.62502,-4.843748,20.380852,19.26659103,7.936681609,63.4210093,14.84277789,0.27678771,-0.459260396,0.233280938,-0.18023309,-0.736378658,0.582951524,-0.986806257,-0.970533031
1533222561,56.641,46.387,61.523,16.602,57.617,64.92774,39.7051,-4.841796,20.324212,19.27791003,7.913074081,63.40331156,14.85016716,0.29131615,-0.4762786,0.238385996,-0.164832598,-0.727372196,0.627107431,-0.982974124,-0.977823272
1533222561,65.43,50.781,54.688,20.508,-26.367,64.919928,39.783224,-4.474608,20.279292,19.22573074,7.879594584,63.40535539,14.83741176,0.305941574,-0.491267908,0.238371502,-0.155167006,-0.703667501,0.678687419,-0.983125073,-0.9742008
1533222561,48.828,46.387,-25.391,13.184,-77.148,64.912116,39.853536,-4.19336,20.2207,19.22512586,7.892240024,63.48349725,14.81970669,0.307190952,-0.502679497,0.223870031,-0.148406659,-0.702868618,0.685096507,-0.995778912,-0.967660373
1533222561,35.156,45.41,-49.316,8.301,-67.383,64.835944,39.966816,-3.996092,20.173824,19.23129,7.872354153,63.23296482,14.8186825,0.307361112,-0.520152856,0.225101515,-0.137460328,-0.704537809,0.727737304,-0.985210917,-0.969455082
1533222561,40.527,44.922,-22.461,7.812,-1.953,64.712896,40.06838,-4.1875,20.113276,19.3114394,7.746226869,63.0137051,14.83784292,0.301359225,-0.485971756,0.230133974,-0.129473175,-0.715474097,0.700809207,-0.979174418,-0.980121858
1533222561,49.805,41.992,48.828,8.789,71.777,64.619148,40.164084,-4.3125,20.048824,19.368078,7.642976173,62.99675593,14.85734449,0.309782382,-0.467631881,0.238995537,-0.118997773,-0.724594747,0.721517918,-0.974228974,-0.9910039
1533222561,53.223,41.016,65.43,14.648,27.832,64.611336,40.2676,-4.001952,20.01562,19.38334393,7.515088406,62.85973694,14.87143018,0.321490965,-0.428760762,0.239251711,-0.107475922,-0.724407517,0.702865359,-0.965483493,-0.999412325
1533222561,40.039,41.504,1.953,14.16,-5.859,64.580084,40.355492,-3.75586,19.980464,19.38755815,7.345286121,63.01217033,14.87419556,0.32214551,-0.341666987,0.22811223,-0.100888818,-0.725630919,0.524704192,-0.983996972,-1.001807337
1533222561,31.738,46.875,-31.25,14.648,11.23,64.49024,40.453148,-3.58594,19.9414,19.42095043,7.226664335,62.91434165,14.87762076,0.319754774,-0.299881178,0.220141541,-0.093950799,-0.731145783,0.499353775,-0.977298565,-1.004524648
1533222561,42.969,52.734,-23.926,19.531,51.758,64.369148,40.57424,-3.748052,19.894524,19.52086446,7.148412816,62.7818212,14.87875412,0.310118756,-0.284576557,0.21861876,-0.086282808,-0.739679679,0.512690198,-0.968504679,-1.006071438
1533222561,50.781,46.387,8.789,11.23,75.195,64.238288,40.685568,-4.060552,19.757804,19.56021265,7.098641694,62.78180825,14.86143339,0.321218305,-0.25531556,0.226155555,-0.078829719,-0.7443938,0.496264311,-0.966168915,-0.999040363
1533222561,56.152,41.992,93.262,12.695,39.062,64.175788,40.8008,-3.611332,19.601552,19.5411622,6.968987679,62.5226212,14.78277106,0.337253339,-0.188099195,0.231784125,-0.073757337,-0.729352282,0.369216483,-0.945252196,-0.994653033
1533222561,44.434,42.48,19.043,20.02,-4.883,64.162116,40.869156,-3.193364,19.54296,19.54194103,6.747059882,62.81729796,14.64901504,0.346365918,0.015265591,0.222020775,-0.086192398,-0.725250611,-0.298576096,-0.967295364,-1.01694489
1533222561,22.461,39.551,-53.711,14.648,-5.371,64.105476,40.886736,-3.292972,19.521472,19.55459895,6.676510129,62.61790031,14.61777206,0.345997405,0.034632737,0.213191349,-0.079057094,-0.727972845,-0.299823206,-0.958803575,-1.005653416
1533222561,16.602,35.645,-23.926,11.719,26.367,63.921884,40.902364,-3.587896,19.45702,19.65494212,6.667186086,62.67858818,14.62101603,0.321913513,0.029320115,0.215535411,-0.074711986,-0.703533223,-0.287051093,-0.963840622,-1.007863062
1533222561,34.18,36.621,42.48,16.602,79.59,63.687512,40.8926,-3.691412,19.357412,19.88303619,6.650212599,62.60115768,14.61974905,0.283678556,0.030996456,0.227968339,-0.062758033,-0.664594154,-0.272351395,-0.951418748,-1.008499615
1533222561,54.688,41.992,66.406,19.531,50.781,63.56642,40.90432,-3.562508,19.267568,19.88691999,6.654715959,62.50302955,14.55361641,0.293251002,0.03437832,0.229498544,-0.057023676,-0.650895132,-0.278953401,-0.942774518,-0.994920576
1533222561,49.805,42.969,-5.859,19.043,15.625,63.50978,40.941432,-3.4961,19.203116,19.84899532,6.654059099,62.6145792,14.48248041,0.308023465,0.029164447,0.226832761,-0.054562168,-0.630455524,-0.278112763,-0.953667428,-0.980671095
1533222561,34.18,41.016,-51.27,11.23,56.641,63.380876,40.947292,-3.673836,19.097644,19.86804734,6.639523775,62.60325815,14.44729893,0.314414304,0.01776546,0.223859025,-0.046855028,-0.635130759,-0.260167245,-0.953166721,-0.967562732
1533222561,28.809,39.062,-12.695,3.418,19.531,63.1758,40.949244,-3.724616,18.964832,19.95353849,6.638938135,62.67581241,14.40866608,0.317057598,0.01513799,0.229866219,-0.034205093,-0.648748874,-0.259254502,-0.958807737,-0.957174168
1533222561,55.176,53.223,6.836,18.555,27.832,63.007832,41.033228,-4.105476,18.890616,20.04449743,6.638309242,62.67796662,14.39951727,0.320590814,0.014345288,0.232279753,-0.018899518,-0.644681066,-0.258260052,-0.958330738,-0.95635513
1533222561,78.613,68.359,99.121,34.18,42.969,62.91994,41.175804,-4.218756,18.853508,19.93414472,6.66029549,62.32091224,14.35336582,0.331091824,0.010496513,0.235002172,-0.011623213,-0.615051507,-0.260933148,-0.938823699,-0.940385895
1533222561,68.848,63.965,100.586,29.785,40.527,62.878924,41.300804,-3.74024,18.822256,19.8158827,6.860031316,62.10621009,14.30149713,0.324836782,0.209836314,0.223082984,-0.019476145,-0.602614457,0.436126646,-0.959438013,-0.940502555
1533222561,47.852,61.523,-48.828,20.508,59.082,62.785176,41.412132,-3.929692,18.761708,19.79285243,6.988746946,62.45143288,14.26887106,0.330135302,0.291912861,0.215419522,-0.020343871,-0.590317358,0.62039432,-0.979438096,-0.932311939
1533222561,35.156,58.594,-52.246,9.766,21.973,62.593768,41.501976,-4.371096,18.666008,19.80835659,7.088010409,62.51630927,14.22926027,0.341596248,0.331341908,0.22239529,-0.014329056,-0.590304236,0.664243518,-0.984167522,-0.917179765
1533222561,55.176,56.641,38.086,15.137,-19.531,62.441424,41.587916,-4.765628,18.580072,19.8433247,7.162783771,62.4660999,14.20888905,0.353752286,0.340638683,0.238463624,0.000254823,-0.583178559,0.62878154,-0.973547604,-0.909624714
1533222561,71.289,55.664,114.746,20.02,-26.367,62.365252,41.697292,-4.646488,18.503904,19.7529223,7.215037449,61.88013648,14.16475991,0.366589967,0.337421768,0.2179045,0.010296773,-0.550654214,0.583823131,-0.999168194,-0.893573914
1533222561,52.246,48.34,46.387,12.695,6.836,62.28322,41.773464,-4.175784,18.41992,19.68152577,7.220353413,62.08192813,14.10525252,0.371145262,0.345977997,0.226642244,0.014367325,-0.525063025,0.562975374,-0.988769818,-0.875336187
1533222561,36.133,50.781,-62.5,18.066,21.484,62.166032,41.830104,-4.333988,18.367184,19.68079024,7.189391486,62.02069502,14.07694164,0.3826464,0.34239135,0.211639904,0.027128671,-0.518343235,0.576535419,-0.991152349,-0.862913191
1533222561,29.297,49.316,-71.289,5.859,40.039,61.941424,41.902368,-4.712896,18.263668,19.74908275,7.204398459,62.11914028,14.05335933,0.387220618,0.325873333,0.215098133,0.035533302,-0.531226667,0.544708254,-0.998737527,-0.850689481
1533222561,33.691,42.969,3.906,-4.395,40.039,61.648452,41.962916,-5.066412,18.101556,19.80245873,7.188436287,62.23784883,14.0497863,0.393307083,0.31512633,0.226881182,0.051496364,-0.517420814,0.548657655,-1.003505818,-0.848046696
1533222561,52.246,42.48,102.051,4.395,41.992,61.427748,42.009788,-5.12696,17.96484,19.67553084,7.13298137,61.93494311,14.07656337,0.385608924,0.327949228,0.231947719,0.060865728,-0.524818018,0.587410368,-0.983009312,-0.845680912
1533222561,46.875,43.945,64.941,4.883,29.785,61.250012,42.060568,-4.785164,17.837888,19.46838781,7.097494889,61.82224289,14.04286829,0.379259215,0.328834753,0.225931764,0.074439903,-0.525013116,0.625817733,-0.992935792,-0.837064397
1533222561,36.621,44.434,-39.551,5.859,68.848,61.080088,42.115256,-4.792976,17.736324,19.39719151,7.065545494,61.97289134,14.01697026,0.39465221,0.325961345,0.21352183,0.089407793,-0.495619245,0.660567529,-1.011000699,-0.827766305
1533222561,27.832,38.574,-45.41,1.465,90.82,60.835948,42.13088,-4.8711,17.605464,19.42622588,7.030566994,61.97716712,14.01138644,0.407947011,0.324285088,0.213745041,0.10535577,-0.489045957,0.696680116,-1.011366076,-0.82271821
1533222561,22.461,35.645,-51.758,-1.465,47.363,60.53126,42.158224,-5.345712,17.451168,19.45911238,7.018279929,62.01615084,14.00996475,0.411844732,0.323575871,0.216173669,0.12074786,-0.468230807,0.714984111,-1.014654124,-0.818093516
1533222561,42.48,37.109,46.387,4.883,20.02,60.31446,42.195332,-5.421884,17.314452,19.46125977,6.979377041,61.91866774,14.00671695,0.39836107,0.342073304,0.232316111,0.132999369,-0.441856816,0.742246111,-1.001086101,-0.812154386
1533222561,51.758,36.621,117.676,8.301,46.387,60.17774,42.195332,-4.802744,17.191408,19.35856787,6.927369612,61.84291715,13.96166579,0.408961636,0.367875983,0.233197196,0.145938548,-0.415425981,0.774728666,-0.994979894,-0.799000291
1533222561,35.645,35.645,-35.156,5.371,34.668,60.056648,42.201192,-4.652352,17.072268,19.29747653,6.927369612,62.29755118,13.904667,0.424453684,0.367875983,0.229838925,0.157910488,-0.382791793,0.774728666,-1.001375135,-0.780779536
1533222561,29.297,34.18,-66.406,2.93,38.574,59.869148,42.191428,-4.705084,16.937504,19.35620408,6.921178923,62.17811985,13.87769992,0.431173266,0.369159577,0.228664275,0.173512567,-0.393543003,0.783008585,-0.993612577,-0.76698022
1533222561,39.062,43.945,-26.367,12.207,31.25,59.632816,42.209004,-5.085944,16.832036,19.42637824,6.930797878,62.22504947,13.85066056,0.437324705,0.367722453,0.228678355,0.188264483,-0.391028959,0.76959437,-0.996521637,-0.754195814
1533222561,71.289,64.453,68.359,32.715,-17.578,59.494144,42.3008,-5.148444,16.79688,19.31794763,6.92964639,62.06422886,13.78547888,0.445180071,0.360524937,0.242108257,0.198269058,-0.367781619,0.768298511,-0.977542134,-0.729825001
1533222562,106.445,88.379,125.488,56.152,-26.367,59.509768,42.480488,-4.509772,16.857424,19.10736114,7.070832524,61.98198617,13.73341589,0.425238506,0.426139856,0.240844425,0.191063854,-0.37751484,0.85280398,-0.975044988,-0.728191371
1533222562,91.309,97.168,61.523,60.547,-19.043,59.525396,42.701192,-3.9961,16.951176,19.14426141,7.647600681,62.50207899,13.87326668,0.43401503,1.151252023,0.241349817,0.243024767,-0.35571864,5.114191,-0.975152236,-0.596094851
1533222562,50.781,70.801,-13.672,35.645,27.832,59.382816,42.800804,-3.810552,16.955084,19.16870116,8.393263466,62.5150072,14.08820036,0.43590127,1.911183056,0.22514477,0.320661327,-0.358098315,9.787573072,-0.983750346,-0.387658514
1533222562,39.551,53.711,-44.434,12.695,17.578,59.130864,42.82424,-4.048836,16.861332,19.10025091,8.577117691,62.41670344,14.09326925,0.451481692,1.897920041,0.220138692,0.320882166,-0.322146095,9.10629354,-0.976177563,-0.389368577
1533222562,52.734,52.246,62.012,5.371,-17.09,58.923832,42.849632,-4.197272,16.738284,18.94348511,8.598951675,62.45777473,14.04304882,0.450495716,1.882705471,0.230015456,0.334102819,-0.313780805,8.972701999,-0.977412591,-0.356780938
1533222562,64.941,54.199,113.281,11.719,42.48,58.792972,42.873068,-3.796884,16.636724,18.72734219,8.617417423,62.2553668,14.0082367,0.442015022,1.86682476,0.225888666,0.350389366,-0.308334307,8.8534967,-0.974162296,-0.330882217
1533222562,54.199,50.781,-33.691,10.254,68.848,58.669924,42.884784,-3.628912,16.527348,18.56924168,8.64034563,62.68797919,13.95188112,0.438112979,1.85193618,0.228486764,0.363877288,-0.279811084,8.71890502,-0.985970417,-0.295088427
1533222562,27.832,44.922,-87.402,-1.953,21.973,58.474612,42.900408,-3.757816,16.402348,18.49692486,8.649105367,62.55069424,13.89395653,0.451864855,1.844540472,0.227576804,0.377960828,-0.240964437,8.663609963,-0.977400125,-0.258501486
1533222562,24.414,44.434,-62.5,-3.906,29.297,58.208988,42.945332,-4.212896,16.255864,18.56387206,8.649243939,62.69039825,13.91916104,0.456569872,1.839082643,0.224867202,0.390469607,-0.234528252,8.649340143,-0.982602055,-0.254941014
1533222562,32.715,40.039,0,-6.836,25.879,57.939456,42.990252,-4.4961,16.056644,18.57428171,8.62781376,62.70227449,13.93948193,0.452710614,1.842845181,0.240623551,0.40153827,-0.207059661,8.720144936,-0.976654074,-0.243833685
1533222562,40.039,38.574,103.027,-3.418,16.602,57.718752,43.023456,-4.13868,15.861332,18.45248685,8.583036372,62.52173418,13.91204447,0.44787306,1.873940805,0.249421751,0.400053377,-0.200600902,8.897155369,-0.956817507,-0.224408835
1533222562,38.574,48.34,-22.461,10.254,41.016,57.51172,43.066424,-4.041024,15.691412,18.33444934,8.549632789,62.88039402,13.84086348,0.4551956,1.897012039,0.248132106,0.399041538,-0.172031799,9.034865001,-0.974648576,-0.211546803
1533222562,25.879,57.129,-67.871,10.742,-7.812,57.298828,43.144548,-4.205088,15.5586,18.25676286,8.549249595,62.83269601,13.64575287,0.467580636,1.884075922,0.245170831,0.373908369,-0.139120459,8.998331758,-0.970795102,-0.24771967
1533222562,29.297,59.57,10.742,12.695,5.859,57.093752,43.246108,-4.142588,15.509772,18.31421378,8.588227217,62.94595225,13.53075597,0.470856384,1.849847429,0.247703505,0.376151052,-0.12521866,8.741324417,-0.978760302,-0.215420659
1533222562,45.41,58.594,3.906,20.02,30.273,56.89844,43.335952,-4.396496,15.472664,18.33965826,8.631805336,62.95303319,13.51892367,0.480040258,1.81881835,0.244671692,0.38668749,-0.108590152,8.46659569,-0.980666318,-0.20086476
1533222562,58.105,56.152,98.145,17.578,-2.93,56.789064,43.408216,-4.119152,15.42774,18.20197939,8.674259404,62.79119363,13.49363575,0.487992856,1.785576878,0.252822129,0.393014944,-0.069063073,8.205673917,-0.962259727,-0.179634219
1533222562,45.898,49.316,64.453,10.254,37.598,56.673828,43.43556,-3.53712,15.361336,18.11166079,8.705543367,63.09085973,13.46772779,0.49773596,1.755097001,0.252733733,0.401459571,-0.02283692,8.004082053,-0.977630834,-0.156166152
1533222562,37.598,51.758,-62.988,13.184,94.238,56.51758,43.462904,-3.628916,15.29298,18.08883422,8.713348539,63.0494169,13.45207561,0.514070296,1.742160993,0.237878262,0.415079113,0.002046039,7.943161241,-0.985027226,-0.136610561
1533222562,52.734,62.012,-35.156,28.809,48.34,56.345704,43.5215,-3.970712,15.277356,18.08420862,8.728744655,63.11944205,13.41937716,0.530378152,1.72697385,0.238885768,0.427953471,0.022279862,7.847246259,-0.989938877,-0.105811286
1533222562,72.266,72.266,66.895,39.551,17.578,56.208988,43.619156,-4.140632,15.285168,17.91367572,8.803877082,63.05760435,13.40127311,0.532273985,1.700520407,0.252944239,0.428474324,0.066434639,7.515081016,-0.978449497,-0.095414853
1533222562,73.73,67.383,128.418,32.715,45.41,56.099612,43.693376,-3.685552,15.271496,17.65839258,8.985634127,62.80768714,13.41489904,0.489620599,1.698608125,0.24617862,0.430744832,0.0009989,7.041737076,-0.979802394,-0.095797304
1533222562,49.316,51.27,18.066,14.648,25.391,55.9375,43.703144,-3.19532,15.197276,17.46298599,9.104673459,63.35415815,13.39529375,0.460619473,1.679424133,0.255118057,0.429382363,-0.024327474,6.65934461,-0.978799132,-0.089113367
1533222562,21.973,41.016,-93.262,-3.906,-59.57,55.708984,43.68166,-3.355476,15.0547,17.33612632,9.111511681,63.0444064,13.34685747,0.468987033,1.674006927,0.252097273,0.441073436,0.023142005,6.62452066,-0.973234696,-0.049718995
1533222562,20.02,35.156,-63.965,-12.695,-48.828,55.4375,43.628924,-3.839852,14.859388,17.40593952,9.111490143,63.22261056,13.35982861,0.46345008,1.68094225,0.247933525,0.452545893,0.044761934,6.640688722,-0.978553864,-0.034838636
1533222562,31.738,34.668,-21.973,-15.137,-3.906,55.162108,43.584004,-4.408212,14.640636,17.4312547,9.122566876,63.22122853,13.40727258,0.448315371,1.688465485,0.264008123,0.440189692,0.078286275,6.636102159,-0.970484186,-0.00197482
1533222562,36.621,31.25,76.66,-15.625,-21.973,54.92578,43.527364,-4.306652,14.421888,17.25809635,9.138982741,62.7392373,13.44886628,0.427239935,1.690369416,0.266215515,0.415338311,0.053271354,6.604202569,-0.959622724,0.041561925
1533222562,31.25,28.809,78.613,-9.277,-14.648,54.7207,43.447288,-3.68556,14.236344,17.10455405,9.171442002,62.85018124,13.49472187,0.421573953,1.681283492,0.265794775,0.390478968,0.064065426,6.523865931,-0.967156226,0.084015344
1533222562,26.367,34.18,-75.195,-0.977,-20.508,54.5332,43.3926,-3.863292,14.109388,17.07971667,9.212278389,62.89949905,13.50042356,0.431873545,1.668029922,0.250744271,0.390438429,0.089492866,6.440298673,-0.979079722,0.105653792
1533222562,37.109,44.434,-65.43,2.93,-48.34,54.361324,43.373072,-4.044932,13.994156,17.13278737,9.22659541,63.03893638,13.49362734,0.437505913,1.673659584,0.25202178,0.406244245,0.094907349,6.425695076,-0.987711229,0.124373286
1533222562,44.434,45.898,29.785,-3.418,-41.504,54.189452,43.361352,-4.132824,13.837904,17.09097427,9.219171608,63.15099962,13.46545601,0.453331405,1.683043886,0.255697413,0.423278975,0.127486749,6.469972835,-0.995577555,0.155050895
1533222562,49.805,36.133,101.562,-5.371,-58.105,54.06836,43.310572,-4.074232,13.687512,16.97301538,9.214070095,63.08828217,13.43982997,0.462798748,1.688930907,0.258496521,0.435136972,0.176186088,6.499284019,-0.988175987,0.183078152
1533222562,52.246,35.645,48.828,-0.488,-17.578,54.015624,43.236356,-3.709,13.556652,16.89538686,9.218802382,63.17991518,13.44358987,0.476246916,1.700193929,0.261407726,0.446433152,0.226537178,6.518646326,-0.986543285,0.201754257
1533222562,31.738,36.621,-38.086,-4.395,75.195,53.923824,43.187528,-3.666032,13.435556,16.88035014,9.205467894,63.220911,13.42160766,0.485729151,1.722937861,0.246708012,0.462677147,0.243443724,6.624118856,-0.996396971,0.230915061
1533222562,17.578,35.645,-51.758,-15.625,58.594,53.738276,43.142608,-3.6758,13.277352,16.93898129,9.208063421,63.19376735,13.44653312,0.487882734,1.735110194,0.24579153,0.474596011,0.221142581,6.650994219,-0.994280543,0.233797961
1533222562,31.25,35.156,-15.137,-14.16,14.648,53.544916,43.078152,-4.00588,13.109384,17.08200506,9.217389578,63.20104022,13.55484373,0.4687612,1.742109492,0.245915929,0.456836463,0.217203721,6.647949672,-0.994806538,0.236795285
1533222562,40.527,30.762,53.223,-13.184,28.809,53.388664,43.003936,-4.203144,12.929696,17.06178158,9.216669059,63.04372383,13.63370948,0.48135176,1.758257644,0.25777397,0.448292035,0.244775111,6.700491258,-0.975669336,0.245365126
1533222562,45.898,35.645,43.945,-6.348,28.809,53.304676,42.941436,-3.873068,12.777352,17.00106414,9.240907829,62.78563237,13.68314346,0.497949377,1.757917069,0.253749816,0.444225532,0.28873882,6.66785064,-0.969670422,0.262807211
1533222562,46.875,44.434,-18.555,5.859,12.695,53.279284,42.918,-3.794944,12.732428,16.98593025,9.23761508,62.82111158,13.68491539,0.511852443,1.775311597,0.239915931,0.455893369,0.309253544,6.729256107,-0.978578215,0.282487418
1533222562,26.367,41.992,-21.973,-4.883,38.574,53.158188,42.904328,-3.7969,12.650396,16.9907969,9.226314406,62.79053057,13.68913481,0.515712881,1.787493884,0.237107085,0.464747362,0.308625331,6.793950394,-0.976125195,0.284758432
1533222562,17.09,38.086,-53.711,-21.484,59.082,52.937484,42.871124,-4.212916,12.45704,17.07441914,9.225139213,62.79109143,13.73310785,0.513737898,1.792575173,0.237187222,0.469780106,0.283460376,6.809724314,-0.976165795,0.264739959
1533222562,26.855,31.738,8.789,-25.391,24.414,52.736312,42.800812,-4.464868,12.244148,17.18269883,9.227492281,62.77581718,13.87190453,0.499921477,1.801292344,0.252777209,0.4333092,0.29923141,6.826174353,-0.968243874,0.304250605
1533222562,43.457,36.621,110.352,-7.324,-15.625,52.67186,42.773468,-3.884788,12.113288,17.19251599,9.245140027,62.59574882,14.04235677,0.509012681,1.805555894,0.259930833,0.3789912,0.320601699,6.814224497,-0.949116759,0.37811478
1533222562,24.902,40.039,-7.324,-2.93,-5.859,52.58006,42.76956,-3.63674,12.00196,17.19699665,9.253297141,62.98547278,14.07175383,0.519059167,1.808514417,0.252252845,0.390557052,0.325171627,6.802023255,-0.96505555,0.376151809
1533222562,-1.465,34.668,-66.895,-9.766,23.926,52.36912,42.744168,-3.751976,11.85352,17.28386485,9.254248626,62.8486376,14.08026341,0.510631069,1.80915702,0.246540102,0.405790468,0.296338505,6.801108031,-0.955846561,0.383127343
1533222562,10.742,35.156,-49.316,-8.301,4.883,52.152324,42.7344,-4.121116,11.685552,17.6184793,9.2677784,62.93840289,14.1134471,0.401440884,1.80685396,0.24757721,0.41468901,0.433188602,6.766260582,-0.962040179,0.385664907
1533222562,31.25,32.715,54.199,-13.184,28.809,51.984356,42.710964,-4.1094,11.498052,17.79572928,9.274508571,62.93390941,14.10238433,0.373164389,1.804582729,0.262176103,0.42483774,0.436717531,6.74700983,-0.955527561,0.409620488
1533222562,38.086,32.715,58.105,-14.16,34.18,51.87498,42.68948,-3.839872,11.310552,17.7940456,9.292449095,62.94453437,14.12023805,0.388515826,1.797066464,0.26194167,0.425945932,0.452107186,6.695452898,-0.956565948,0.42945262
1533222562,24.414,30.762,-57.617,-10.254,16.113,51.742168,42.658232,-3.917996,11.146488,17.79510501,9.309378298,63.06646438,14.14856446,0.403359496,1.789744054,0.251389505,0.425675492,0.461311666,6.646829439,-0.973187637,0.447321135
1533222562,12.695,29.785,-63.965,-13.184,10.742,51.542948,42.611356,-3.93362,10.968752,17.87579859,9.336319812,63.12113076,14.15990564,0.405579673,1.776322185,0.252622904,0.434900619,0.433357787,6.570441495,-0.977253542,0.463310931
1533222562,20.996,28.809,-20.508,-14.16,23.926,51.316384,42.578156,-4.003932,10.759768,18.03227003,9.371491537,63.13556458,14.18539791,0.386559837,1.761038261,0.252561649,0.438502848,0.421021732,6.47732873,-0.978088271,0.478597847
1533222562,37.598,31.25,39.551,-8.789,89.355,51.105448,42.572296,-4.201196,10.54102,18.05890757,9.405702385,63.14422982,14.16913658,0.390987566,1.740584288,0.255751939,0.433660757,0.435384778,6.383157967,-0.97804844,0.504930435
1533222562,46.875,32.227,80.566,-6.836,56.641,50.972636,42.556672,-4.013696,10.322268,17.90871137,9.412326104,62.92960113,14.0460859,0.392848595,1.736395598,0.256187268,0.417964057,0.480026435,6.364733732,-0.965189194,0.509946789
1533222562,35.156,28.32,-9.766,-7.812,41.992,50.894508,42.503936,-3.826196,10.138676,17.81586338,9.426289474,63.11252174,13.88763401,0.404102182,1.729641947,0.253914468,0.393634934,0.537050686,6.325861476,-0.979365277,0.494015471
1533222562,20.996,34.18,-58.105,-10.254,106.445,50.802712,42.494172,-3.882836,9.970708,17.8423122,9.468985056,63.02511378,13.82235669,0.41269346,1.709439411,0.248329402,0.397458942,0.525668992,6.217670915,-0.972986847,0.526779062
1533222562,22.949,34.18,-51.27,-10.254,114.258,50.6074,42.488312,-4.277368,9.781256,17.93699331,9.476331319,63.06766127,13.8139685,0.403155665,1.706807705,0.249004402,0.406457088,0.490942277,6.197988147,-0.976062092,0.549570806
1533222562,37.598,30.273,30.762,-10.254,45.898,50.3574,42.441436,-4.58596,9.578132,17.97349324,9.481035536,63.05430306,13.76497864,0.412067645,1.704933726,0.264193663,0.408571777,0.495950488,6.185267699,-0.968319358,0.579604182
1533222562,46.875,32.227,108.398,-10.254,36.133,50.160136,42.398468,-4.16604,9.390632,17.7151568,9.512417768,62.69078137,13.68389263,0.383164826,1.694445792,0.261208528,0.402144132,0.477907258,6.109154195,-0.956642915,0.603046515
1533222562,34.18,30.273,8.789,-9.277,57.129,49.970684,42.339872,-3.781276,9.20704,17.47569147,9.534261127,63.09489925,13.63290788,0.360203007,1.69147667,0.259332299,0.404205842,0.495626601,6.06191022,-0.974405515,0.633958705
1533222562,12.207,31.738,-84.473,-11.23,59.082,49.712872,42.291044,-4.080104,9.000012,17.39062849,9.563659476,62.87819579,13.57364994,0.371528541,1.686129764,0.252943597,0.407212688,0.540268406,6.002924964,-0.964978523,0.667822833
1533222562,6.348,32.715,-66.895,-12.207,50.293,49.355452,42.234404,-4.404324,8.800792,17.47094149,9.586565916,63.08393789,13.48846998,0.35574071,1.683980639,0.256333291,0.396631772,0.562350805,5.957693242,-0.976060266,0.687671292
1533222562,24.414,32.715,-16.602,-11.23,31.25,49.019516,42.175812,-4.83206,8.638684,17.44028231,9.601193286,63.19800438,13.4320747,0.283133007,1.689679171,0.266390148,0.391500671,0.567048494,5.947168603,-0.981515608,0.713889249
1533222562,45.898,33.691,78.125,-5.859,0,48.818344,42.134796,-4.910184,8.49806,17.10404478,9.614456049,62.91547924,13.42827225,0.180484763,1.696582368,0.276704199,0.400509739,0.305353595,5.943119751,-0.958135652,0.734936325
1533222562,41.992,33.691,97.656,-3.418,-6.836,48.681624,42.097684,-4.365264,8.363296,16.84073948,9.628739808,62.79972533,13.39510467,0.136214971,1.699130265,0.273734405,0.415258851,0.271803141,5.921739689,-0.958050938,0.771843425
1533222562,25.879,35.645,-47.852,-4.395,11.719,48.519516,42.0762,-4.42386,8.257824,16.75631146,9.64338057,63.09678628,13.34453584,0.145074877,1.700321148,0.261772019,0.430067535,0.314285228,5.89638648,-0.978173212,0.820375363
1533222562,22.949,36.621,-56.152,-3.418,27.344,48.304672,42.066436,-4.669952,8.164072,16.78017044,9.651779309,63.13046757,13.34073864,0.158743518,1.701413843,0.263222869,0.446505375,0.309836229,5.881519246,-0.980827352,0.837718473
1533222562,35.645,37.598,51.27,-4.883,50.781,48.101548,42.074248,-4.771512,8.054696,16.76226169,9.656074536,63.21199269,13.34010324,0.164489552,1.701595521,0.271745731,0.46233358,0.321320345,5.873029814,-0.985361997,0.851288143
1533222562,42.48,31.25,111.328,-10.254,69.824,47.974592,42.07034,-4.585964,7.937508,16.60540117,9.651647571,63.1010978,13.33450749,0.155413329,1.702280804,0.272200749,0.478940222,0.343931042,5.883165693,-0.977952601,0.871707089
1533222562,35.156,32.715,34.18,-10.254,76.172,47.8867,42.068388,-4.216824,7.818368,16.52605934,9.655847666,63.37451766,13.36624889,0.164756119,1.699875281,0.279340586,0.489397308,0.388491577,5.872498568,-0.976311816,0.86428773
1533222562,22.461,34.18,-55.176,-7.812,85.938,47.658184,41.984404,-4.287136,7.636728,16.53560483,9.657696612,63.33028388,13.39520819,0.177972684,1.698964042,0.265670548,0.500363704,0.385360734,5.867772392,-0.978573911,0.859953388
1533222562,36.621,33.691,-51.758,-11.23,92.285,47.42576,41.878932,-4.45706,7.425792,16.49040644,9.634517659,63.37723446,13.29729608,0.177743382,1.725201637,0.266922671,0.500762598,0.398910084,6.002186456,-0.982066143,0.907013689
1533222562,46.387,35.156,11.23,-14.16,40.527,47.275372,41.830104,-4.687532,7.24806,16.23179034,9.580030088,63.44757675,13.17560428,0.129692574,1.758287057,0.272441584,0.482542712,0.339413696,6.237704921,-0.986950888,0.922259535
1533222562,47.852,31.738,76.172,-11.23,-0.977,47.162092,41.783228,-4.773468,7.093764,16.06502892,9.583074503,63.2846672,13.16585501,0.114374255,1.769864402,0.279334204,0.485444492,0.375270955,6.262976748,-0.969102668,0.951933996
1533222562,44.922,31.738,64.941,-10.254,27.832,47.072248,41.750024,-4.347688,6.966812,15.95995399,9.60372425,63.15959722,13.15542475,0.114084738,1.768515917,0.276381998,0.496421724,0.424780611,6.22320712,-0.968472325,0.981030396
1533222562,23.438,39.551,-36.133,-7.812,-18.555,46.953108,41.763696,-4.306672,6.859392,15.90880481,9.624107322,63.26968473,13.16913023,0.123943113,1.763157365,0.260797887,0.509491235,0.461422602,6.174542244,-0.984643341,0.990247853
1533222562,11.719,41.016,-45.41,-4.883,-40.039,46.775376,41.789088,-4.431672,6.757828,15.97395281,9.618521919,63.24564148,13.17975293,0.131645498,1.762689936,0.259809238,0.524086877,0.427980514,6.185291913,-0.98274958,0.997840486
1533222562,18.066,36.621,6.836,-7.812,13.672,46.578108,41.7969,-4.61722,6.628924,16.11773332,9.60808812,63.29605549,13.17198353,0.118457733,1.76207517,0.264067894,0.540961451,0.404080861,6.205219114,-0.986459846,1.02181243
1533222562,35.156,35.645,89.355,-4.395,-30.762,46.45506,41.812528,-4.525424,6.488296,16.16622687,9.603067606,63.19427436,13.1561783,0.123239249,1.763399904,0.271173953,0.557261019,0.398237571,6.217826747,-0.972883495,1.055795945
1533222562,40.527,36.133,76.66,3.906,-46.387,46.433576,41.853544,-3.986364,6.38478,16.13547364,9.589802001,63.31441068,13.08488648,0.138600723,1.769402923,0.272770793,0.57110266,0.420979023,6.253118793,-0.976671663,1.124421635
1533222562,23.438,37.109,-40.527,-1.953,34.668,46.392564,41.87698,-3.81644,6.263688,16.13979343,9.543195066,63.42999148,13.00194645,0.142314596,1.800445371,0.256509391,0.582859133,0.418112966,6.372905227,-0.992002745,1.20768736
1533222562,1.465,35.156,-41.992,-9.766,67.871,46.230456,41.86526,-3.931672,6.109388,16.1852656,9.524225861,63.27415873,12.93764799,0.139146327,1.80886917,0.257393839,0.59908425,0.396030357,6.423894617,-0.984191856,1.281658965
1533222562,4.395,29.785,-50.781,-10.254,48.34,46.03124,41.835964,-4.345732,5.970716,16.43061279,9.530710115,63.31750408,12.89765223,0.080152975,1.807733583,0.261495149,0.611460797,0.428136625,6.408116333,-0.987350126,1.335731296
1533222562,28.32,32.227,22.461,-3.418,60.547,45.923816,41.82034,-4.353544,5.85548,16.63427536,9.55661013,63.28391035,12.8864212,0.048616237,1.794668214,0.277150028,0.625713552,0.427418144,6.338702585,-0.977296796,1.371598928
1533222562,41.016,37.598,33.203,1.953,94.238,45.90624,41.82034,-3.990264,5.746104,16.66167674,9.569155994,63.28046633,12.84078963,0.062343069,1.789314176,0.277496335,0.643961089,0.410945457,6.305155693,-0.97675236,1.437240132
1533222562,20.02,35.645,-119.629,-5.371,48.828,45.826164,41.806672,-4.33206,5.648448,16.66453824,9.569155994,63.23413631,12.75649569,0.065397267,1.789314176,0.264000214,0.657504078,0.408882675,6.305155693,-0.978636161,1.532253078
1533222562,-4.883,29.785,-100.586,-12.207,29.785,45.624992,41.779328,-4.554716,5.556652,16.74076761,9.575549843,63.6276863,12.7477403,0.064179761,1.789059837,0.251506729,0.674747873,0.371121124,6.291280935,-0.979088458,1.562977293
1533222562,5.371,31.25,-64.453,-14.648,61.523,45.392568,41.759796,-4.845732,5.427748,17.04520335,9.600146423,63.8672386,12.79345997,-0.010100189,1.776645953,0.24641129,0.677977665,0.455036349,6.226338246,-0.985812683,1.532544596
1533222562,31.25,38.574,21.484,-19.043,53.711,45.226552,41.759796,-5.08206,5.281264,17.19628997,9.61663351,63.97409051,12.83413543,-0.025417634,1.76917156,0.255579935,0.682804608,0.450167544,6.182983657,-0.991725328,1.524255891
1533222562,57.129,49.316,71.777,-1.465,-2.93,45.210928,41.78714,-4.67386,5.230484,17.13129769,9.61663351,63.76609201,12.90370071,-0.015172303,1.76917156,0.259853278,0.675161964,0.477344939,6.182983657,-0.974208211,1.507037347
1533222562,35.156,39.551,-62.5,3.418,0.488,45.177724,41.783236,-4.65628,5.218764,17.1185987,9.628401131,63.93060943,12.90517587,-0.014273388,1.756059296,0.245824868,0.685855418,0.485694606,6.119234277,-0.993490011,1.515956378
1533222562,-9.766,24.902,-133.789,-26.367,10.742,44.994128,41.71878,-4.933624,5.107436,17.13006102,9.62911197,63.91403293,12.90548736,-0.009197212,1.75685491,0.245921279,0.688538308,0.476669167,6.119436072,-0.992583678,1.518054838
1533222562,-7.812,22.461,-78.125,-28.32,39.062,44.783192,41.675812,-5.273468,4.960952,17.4699843,9.688020668,64.32367572,13.05715281,-0.102266385,1.723705241,0.224789047,0.63339616,0.608275839,5.98303556,-0.976578321,1.472453026
1533222562,12.695,22.949,-32.715,-22.949,65.43,44.597644,41.683624,-5.875032,4.802748,17.78635436,9.749567057,64.48547856,13.22551551,-0.166984034,1.676093231,0.233095032,0.577585778,0.66651371,5.847568973,-0.985529535,1.440328894
1533222562,23.438,20.996,57.129,-20.508,28.809,44.490224,41.652372,-5.59964,4.683608,17.87830742,9.733699998,64.03380933,13.32190954,-0.158511472,1.691869526,0.237497633,0.561124899,0.624576452,5.872662022,-0.974298211,1.415233376
1533222562,7.812,17.09,31.738,-16.113,32.715,44.392564,41.58792,-5.015656,4.632828,17.92456794,9.787595967,64.15650579,13.41459848,-0.145953246,1.644715724,0.226993421,0.549089318,0.591099131,5.769120597,-0.990276239,1.364892362
1533222562,-16.602,18.555,-118.652,-21.484,-23.438,44.150376,41.515656,-5.253936,4.568376,18.0576681,9.895912382,63.82708985,13.46930615,-0.1590516,1.551608494,0.223639982,0.5398067,0.55079601,5.584647991,-0.990609627,1.324846267
1533222562,-11.719,16.113,-100.098,-19.043,-34.668,43.80858,41.427764,-5.882844,4.494156,18.46512372,9.997767014,64.14016739,13.5556422,-0.255002587,1.477521062,0.211526914,0.51661155,0.719642309,5.397390149,-0.9886972,1.28010368
1533222562,8.301,16.602,-13.184,-13.672,-31.25,43.49608,41.335968,-6.277376,4.423844,18.7046871,10.12382813,64.29666407,13.63400786,-0.313956869,1.385467155,0.222875803,0.503396858,0.807237616,5.196554854,-0.984455646,1.229596016
1533222562,16.602,17.578,98.633,-5.859,-15.137,43.291004,41.240264,-5.750032,4.380876,18.64233148,10.24424058,64.03607413,13.68229351,-0.342759601,1.306690869,0.232488611,0.504152107,0.775624205,5.005224208,-0.962282942,1.192846104
1533222562,13.184,18.555,19.043,1.465,30.273,43.15038,41.140656,-5.265656,4.382828,18.65510633,10.35383925,64.35549342,13.69770424,-0.32997048,1.244676082,0.222097286,0.5102261,0.755485487,4.830386804,-0.982040333,1.181597011
1533222562,5.371,20.02,-105.957,-0.488,-30.273,43.01366,41.062532,-5.4805,4.417984,18.74916122,10.45174831,64.08290052,13.69725199,-0.319188583,1.197411486,0.216057971,0.509868738,0.697221378,4.676846732,-0.974738051,1.18185141
1533222562,9.277,19.043,-67.871,0.488,-15.625,42.880848,41.007844,-5.716828,4.470716,18.89953183,10.53633051,64.33059604,13.67330944,-0.322061899,1.158633549,0.209724272,0.50862967,0.635695804,4.533139036,-0.980008252,1.20208712
1533222562,21.973,19.043,31.738,-0.488,7.812,42.757804,40.947296,-5.781284,4.519544,19.01957892,10.61501961,64.4512093,13.63240643,-0.317477838,1.114469768,0.215966268,0.509435146,0.575272986,4.408945779,-0.988610183,1.234897206
1533222562,30.273,20.02,95.215,-1.953,7.324,42.697256,40.886752,-5.402376,4.556652,19.05504811,10.69697629,64.40546271,13.59247884,-0.30208758,1.072170085,0.217920128,0.511031497,0.545939712,4.280302023,-0.983403645,1.267374194
1533222562,24.902,22.461,-0.977,6.348,36.133,42.697256,40.847688,-4.933628,4.599624,19.0706296,10.77245415,64.72037151,13.56193826,-0.292892869,1.037735511,0.212429902,0.512117386,0.531158369,4.159149294,-1.003941595,1.293262456
1533222562,7.324,24.414,-92.773,5.859,20.996,42.626944,40.806672,-4.927768,4.650404,19.0706296,10.82157815,64.32355351,13.55047553,-0.292892869,1.016674297,0.216158648,0.505004137,0.531158369,4.077108404,-0.998902544,1.300577864
1533222562,-0.977,22.461,-51.27,1.953,14.648,42.45702,40.750032,-4.914096,4.67384,19.16865534,10.86444199,64.31545126,13.53122216,-0.299531537,1.002839431,0.216489498,0.498260659,0.498843045,4.001916483,-0.998934909,1.315529571
1533222562,16.602,23.926,37.598,5.859,52.246,42.283192,40.6973,-4.953156,4.685556,19.36592502,10.92310301,64.30519336,13.52141332,-0.31014575,0.98349848,0.216310748,0.495097853,0.451179001,3.905145769,-0.998187109,1.324011904
1533222562,31.25,22.461,63.477,6.348,70.312,42.15624,40.62894,-4.818388,4.685556,19.40229588,10.97246031,64.2762711,13.52116521,-0.293912738,0.970374012,0.217433898,0.492516076,0.42409029,3.8225872,-0.994994036,1.32259177
1533222562,23.438,22.461,17.09,5.859,25.391,42.080072,40.56058,-4.367216,4.693368,19.37008368,11.03270181,64.38462873,13.52116521,-0.281253078,0.955024952,0.21423246,0.492516076,0.434473002,3.728527307,-1.005651187,1.32259177
1533222562,7.812,21.973,-57.129,5.859,-32.715,41.982412,40.472692,-4.322296,4.68946,19.40621072,11.09219317,64.13993235,13.52127718,-0.271448422,0.94059345,0.207099931,0.490760015,0.407834185,3.637495523,-0.997237039,1.321292983
1533222562,-2.93,19.043,-46.875,0.488,-56.152,41.771472,40.361364,-4.451204,4.619148,19.51711081,11.15215385,64.09885539,13.5207966,-0.273107343,0.930478904,0.207149346,0.491672932,0.363336403,3.556254124,-0.994795783,1.322487357
1533222562,8.301,20.996,-22.461,-1.953,-17.09,41.53124,40.279332,-4.7598,4.527352,19.71618848,11.22665485,64.15208807,13.49663914,-0.280668177,0.913159664,0.211546333,0.506009276,0.32585096,3.473373628,-0.999067347,1.360396999
1533222562,32.227,24.902,61.523,5.371,44.434,41.376944,40.216832,-4.591832,4.490244,19.7567783,11.29300107,64.05194334,13.46280656,-0.271718769,0.898709016,0.223833992,0.522696092,0.304361074,3.383519937,-0.985018709,1.410188466
1533222562,34.668,26.367,87.891,4.395,70.312,41.324208,40.164096,-3.976596,4.466808,19.67773905,11.33478508,64.17084762,13.44757528,-0.265044077,0.895373639,0.218918053,0.531094572,0.329602784,3.323193734,-0.997954272,1.434959152
1533222562,13.672,26.367,-53.711,-2.441,78.125,41.238272,40.1055,-3.876988,4.406264,19.67798277,11.36851498,64.31767512,13.44259457,-0.2572342,0.894137123,0.204038543,0.536638432,0.326597086,3.273842644,-1.010814583,1.445235035
1533222562,8.301,29.297,-52.246,0,63.965,41.068352,40.03714,-3.996128,4.369156,19.7518013,11.40180988,64.22083222,13.43947194,-0.252188431,0.894693799,0.204747034,0.549157645,0.287790986,3.227805113,-1.005899451,1.459042064
1533222562,22.461,25.879,66.895,-3.418,33.691,40.904288,39.96878,-3.9473,4.332048,19.85184705,11.41522164,64.28304487,13.43877668,-0.24144908,0.905543362,0.208131261,0.557258049,0.24338845,3.223168921,-1.010911974,1.466156759
1533222562,37.598,27.832,176.27,-4.395,11.23,40.81054,39.929716,-3.257844,4.26564,19.83538873,11.44871625,64.3324162,13.44745162,-0.226215519,0.907951747,0.207701305,0.563733857,0.242746351,3.181657976,-1.014549607,1.461287799
1533222562,45.41,33.203,111.328,1.465,-2.93,40.808588,39.89456,-2.62308,4.228532,19.79520729,11.47347249,65.33276106,13.44939927,-0.217550179,0.907627496,0.251357324,0.576502662,0.260730357,3.145797432,-0.908845398,1.470349542
1533222562,28.809,31.738,20.02,0.977,53.711,40.779292,39.865264,-2.36136,4.25002,19.79472765,11.48059108,65.67254678,13.44425572,-0.217285713,0.914363154,0.240975293,0.585022657,0.260956825,3.142282509,-0.925287779,1.483553427
1533222562,11.719,32.227,33.691,-4.395,75.195,40.671872,39.84964,-1.972688,4.27736,19.80709113,11.49206303,65.6317104,13.43470699,-0.213253016,0.91789105,0.230653679,0.582447226,0.251977411,3.128162817,-0.924549744,1.491930919
1533222562,22.949,34.668,49.805,-9.277,67.871,40.568356,39.841828,-1.857452,4.257832,19.89173976,11.49981018,65.55600064,13.41001022,-0.206828323,0.919098062,0.217477155,0.584648379,0.210378231,3.117387162,-0.922965066,1.513917235
1533222562,38.086,35.156,144.043,-7.812,109.375,40.468748,39.83792,-1.527372,4.21682,19.91644648,11.50267525,65.62182528,13.42623468,-0.193471862,0.920184769,0.213327798,0.583855605,0.192507446,3.113939546,-0.931441395,1.498957943
1533222562,41.016,32.227,198.73,-3.906,72.266,40.42578,39.820344,-0.371124,4.1719,19.86607636,11.50410625,66.14734636,13.44744943,-0.185610645,0.920730831,0.233074344,0.587402537,0.214770896,3.112219355,-0.908518619,1.480298407
1533222562,27.832,30.762,50.781,-3.906,62.988,40.390624,39.800812,0.115204,4.146512,19.85317362,11.5123944,67.10822381,13.45578231,-0.180171826,0.922279269,0.288054845,0.595467294,0.221187253,3.101001701,-0.736190967,1.477666597
1533222562,12.207,32.227,-1.953,-6.348,69.336,40.234372,39.775424,0.367156,4.12698,19.86771464,11.52364353,67.03628328,13.46504572,-0.175427886,0.92293304,0.273536831,0.599075713,0.21103829,3.084912439,-0.738308274,1.470358424
1533222562,15.625,31.738,35.156,-5.859,72.754,40.0332,39.738312,0.57614,4.074248,19.93530171,11.53334473,66.90903894,13.47675478,-0.162043292,0.926121508,0.267433704,0.600279138,0.177750718,3.073363904,-0.728633553,1.459628542
1533222562,29.785,33.691,107.422,0.977,30.762,39.89648,39.710968,0.580048,4.035188,19.92883949,11.54425898,66.93588151,13.48998002,-0.14796136,0.931848025,0.258310261,0.60864084,0.1734414,3.063370278,-0.735390239,1.452822148
1533222562,33.691,34.18,123.535,0.488,-41.504,39.812492,39.69144,1.22458,4.011748,19.8811856,11.55047766,66.94211564,13.48473229,-0.135846471,0.936920783,0.258509002,0.617573127,0.19189296,3.059534778,-0.735345422,1.466799769
1533222562,23.438,31.738,44.922,-3.906,-14.16,39.732416,39.671908,1.914032,3.978544,19.86279029,11.55570498,67.34753616,13.48578894,-0.125231984,0.940317276,0.250298405,0.622590313,0.200380717,3.055169329,-0.755276671,1.469784782
1533222562,14.16,32.227,-16.602,0,11.719,39.587884,39.64652,2.0195,3.959012,19.888375,11.5650386,66.90587896,13.49505749,-0.114857333,0.941908949,0.254043796,0.627931554,0.183663327,3.042876337,-0.761255739,1.464148076
1533222562,18.555,37.598,0.488,1.465,-28.32,39.392572,39.644568,1.947232,3.96292,19.94253972,11.57442123,66.85560594,13.49727668,-0.101143365,0.945179699,0.250985461,0.631893304,0.156318663,3.032289182,-0.756840641,1.464923874
1533222562,29.785,37.598,120.117,0,87.891,39.208976,39.644568,2.054652,3.960968,19.90830333,11.57472661,66.84742432,13.49640906,-0.087787748,0.945602378,0.254285727,0.631182815,0.163739523,3.032299457,-0.754629547,1.465324871
1533222562,28.809,31.738,171.875,4.883,92.773,39.039056,39.62894,2.6484,3.9805,19.78352785,11.57472661,67.01611563,13.49694894,-0.086848263,0.945602378,0.259476859,0.631511063,0.195078465,3.032299457,-0.753634153,1.464988241
1533222562,22.461,34.18,66.406,8.789,-29.297,38.880852,39.626988,3.331992,4.03128,19.68909132,11.58278322,67.85859227,13.49472685,-0.080111857,0.946589918,0.286795349,0.627549582,0.225583906,3.021447063,-0.714256203,1.464218516
1533222562,20.996,39.551,6.836,12.207,34.18,38.728508,39.632848,3.578088,4.09964,19.66264042,11.58366371,67.63537635,13.48881519,-0.064985811,0.946780315,0.278561529,0.617982639,0.235062095,3.020316755,-0.718176352,1.462155748
1533222562,23.438,35.156,5.859,10.742,76.172,38.558588,39.630892,3.458944,4.16214,19.65303629,11.58325157,67.53527435,13.48676213,-0.049085896,0.945360962,0.271349526,0.605007019,0.237774866,3.019231936,-0.710742646,1.452043136
1533222562,35.645,31.738,72.754,6.348,32.715,38.394528,39.609408,3.42574,4.189484,19.60058293,11.58396895,67.50474248,13.48117116,-0.035991725,0.945627471,0.276621692,0.593421385,0.25752508,3.018414848,-0.704776211,1.44761038
1533222562,47.852,32.227,137.207,10.742,37.109,38.310544,39.558628,4.005816,4.210968,19.45147112,11.59364149,67.46845329,13.47863388,-0.041758476,0.947630972,0.276783937,0.587804919,0.297266287,3.006225125,-0.701823542,1.446059881
1533222562,46.875,32.227,24.414,12.695,9.766,38.263668,39.490272,4.400348,4.240264,19.36458894,11.59808007,67.99282599,13.48480378,-0.044481634,0.958351209,0.275484286,0.582642065,0.331669976,3.014412285,-0.721361042,1.434301968
1533222562,29.297,33.691,-43.945,4.883,-30.273,38.160152,39.439488,4.53902,4.255888,19.32944369,11.59069843,67.82304907,13.49528579,-0.041716507,0.974578884,0.266287819,0.575723766,0.350955963,3.05158259,-0.711843383,1.415961271
1533222562,26.855,34.18,1.953,0,29.297,38.031244,39.398472,4.568316,4.238308,19.3077919,11.58817257,67.6879439,13.49375359,-0.02876939,0.987108756,0.267682688,0.572475982,0.363142139,3.074100036,-0.703719133,1.415267261
1533222562,47.363,33.203,54.199,7.324,62.012,37.964836,39.335972,4.376908,4.216824,19.27510043,11.58857051,67.68522241,13.49643431,-0.014684593,0.997008226,0.266418506,0.575947196,0.380366769,3.08756,-0.703815683,1.414811085
1533222562,52.734,33.691,96.68,11.23,36.133,37.943352,39.261752,4.706988,4.181664,19.21389475,11.5796418,67.47577926,13.48719034,-0.013864113,1.012833078,0.266889288,0.581000043,0.410419178,3.127039945,-0.688408199,1.430148799
1533222562,39.062,34.18,51.27,8.789,55.664,37.91796,39.210972,5.210896,4.152368,19.19427737,11.55600258,67.72520455,13.45725148,-0.013354316,1.032368298,0.259448803,0.586804578,0.4209191,3.198151917,-0.713901459,1.468699648
1533222562,20.996,35.645,-16.113,7.812,58.105,37.84374,39.183632,5.542928,4.140648,19.18855813,11.5503048,67.60050323,13.43913289,-0.009602103,1.045688424,0.246230304,0.593103773,0.424886244,3.228408979,-0.71142773,1.49577147
1533222562,9.277,37.109,1.953,3.906,47.852,37.652332,39.154332,5.665976,4.095724,19.21807829,11.55062516,67.28913767,13.43463997,-0.000644776,1.052548711,0.24970327,0.595941334,0.406038681,3.237817313,-0.696986713,1.503730422
1533222562,20.996,33.691,-3.418,4.395,2.93,37.458972,39.121128,5.423788,4.042992,19.26347407,11.54654307,67.2541852,13.41648704,0.012145075,1.060935404,0.245098606,0.606260827,0.389350189,3.257426678,-0.694242842,1.534678666
1533222562,37.109,33.691,100.586,1.953,22.949,37.36522,39.091828,5.861288,4.003928,19.18662399,11.55028496,67.17709148,13.38916298,0.021890779,1.06810993,0.255016158,0.617757219,0.416584936,3.261895791,-0.681230682,1.577672173
1533222562,35.645,39.551,97.168,1.465,60.059,37.330064,39.084016,6.724568,3.982444,19.13053622,11.55474879,67.43980315,13.38092167,0.029787957,1.0741031,0.243840911,0.626948469,0.448976826,3.263397897,-0.708102893,1.595994437
1533222562,18.555,41.016,-36.133,-1.465,28.809,37.25194,39.06644,6.966756,3.9551,19.1255689,11.55377156,67.22051103,13.38066807,0.035162809,1.076383868,0.243270145,0.631773723,0.452764689,3.268477252,-0.725709664,1.600450077
1533222562,7.812,37.598,-32.227,-11.23,41.992,37.09764,39.039096,7.068316,3.888696,19.16232339,11.54745003,66.95500742,13.3848033,0.043482267,1.08210899,0.249087585,0.637089084,0.430481043,3.288608249,-0.715294681,1.600099545
1533222562,21.973,37.109,41.504,-4.395,41.992,36.957016,39.023468,7.099568,3.853536,19.24360567,11.54278155,66.87586029,13.41888721,0.052254042,1.090171182,0.248211699,0.641340844,0.395909727,3.309118863,-0.708926054,1.572666844
1533222562,42.48,33.691,118.164,2.93,21.973,36.890608,38.978544,7.472616,3.853536,19.22508078,11.54273911,66.89017543,13.42906714,0.067975721,1.094238473,0.246936552,0.646850971,0.407577734,3.315222625,-0.711202463,1.56614437
1533222562,35.156,33.691,54.199,0,37.598,36.828108,38.919948,8.12496,3.855488,19.17696231,11.5415453,67.24895864,13.42906714,0.072840692,1.105409707,0.244391144,0.646850971,0.435965901,3.335154077,-0.735542476,1.56614437
1533222562,12.695,38.086,-60.547,1.953,20.508,36.697248,38.87698,8.11324,3.853536,19.1569615,11.53100806,66.90581384,13.42846899,0.081389296,1.121254148,0.241358728,0.646538953,0.450367316,3.379872229,-0.734782591,1.566565294
1533222562,12.695,38.574,-6.836,1.953,15.137,36.564436,38.847684,8.320272,3.855488,19.20976797,11.51394074,66.9176318,13.42871089,0.092933406,1.134952207,0.241224055,0.646936829,0.424556541,3.432875972,-0.735506321,1.566616892
1533222562,28.32,36.133,21.484,1.953,58.105,36.417952,38.808624,8.324176,3.847676,19.26061232,11.5053191,66.79036617,13.42839776,0.104776863,1.144286023,0.237219355,0.646553785,0.400507173,3.463522496,-0.72504973,1.566661627
1533222562,43.457,36.133,84.473,5.371,48.34,36.300764,38.751984,8.246052,3.835956,19.18303326,11.49786092,66.79110994,13.42893633,0.115721012,1.155801232,0.237041059,0.648223747,0.440119441,3.495724353,-0.72520738,1.567455601
1533222562,49.316,41.504,135.254,10.254,11.719,36.30662,38.722688,9.003864,3.853536,19.04918692,11.47591624,66.69009212,13.42631243,0.108888586,1.173261892,0.235733996,0.651101908,0.486968365,3.565106601,-0.7204946,1.573312088
1533222562,37.109,41.504,-7.812,9.766,6.836,36.30662,38.703156,9.349568,3.88674,19.05297685,11.45942723,67.05307473,13.43184818,0.108282455,1.183369131,0.228528492,0.646766885,0.484369875,3.612996442,-0.731659984,1.562478274
1533222562,27.832,42.969,-50.781,8.301,-21.484,36.23826,38.689484,9.26168,3.921896,19.05297685,11.45046925,66.74072009,13.4361794,0.108282455,1.19015122,0.231008457,0.639035805,0.484369875,3.641251788,-0.716778132,1.550244609
1533222562,37.598,42.48,32.227,11.23,-19.531,36.12498,38.666044,9.185508,3.951192,19.05260019,11.44329612,66.80560674,13.43618513,0.118409013,1.194987982,0.232116866,0.631405416,0.48628512,3.663048794,-0.722284408,1.543481049
1533222562,56.152,44.434,124.023,9.277,-4.883,36.085916,38.65628,9.466756,3.966816,18.95938862,11.42944231,66.7683624,13.44413254,0.122704048,1.203251422,0.235112093,0.624346606,0.53412921,3.703553794,-0.716621302,1.527460848
1533222562,63.965,51.758,83.008,15.137,14.648,36.156228,38.668,10.109336,4.029316,18.90774705,11.42344244,67.10391436,13.44805828,0.118932632,1.206752064,0.238035495,0.620533165,0.554087892,3.721083564,-0.73235035,1.519295918
1533222562,43.945,50.293,-26.855,14.16,40.527,36.15232,38.67386,10.435508,4.10158,18.9787576,11.43541688,67.0355932,13.46357106,0.118584077,1.203105123,0.22400093,0.606810475,0.517580039,3.692318498,-0.738003521,1.488652792
1533222562,22.461,47.363,-59.57,4.883,29.297,36.03318,38.685576,10.374964,4.130876,18.97704587,11.44101821,66.65395545,13.46929047,0.119119854,1.201201729,0.235134549,0.592362953,0.518891429,3.678475113,-0.730453081,1.468697551
1533222562,23.438,43.945,-22.949,0.977,65.918,35.86912,38.687528,10.031216,4.128924,18.96909729,11.44843777,66.7108454,13.46296651,0.134269464,1.197027312,0.234852395,0.587082739,0.527024729,3.657200285,-0.734341758,1.471717059
1533222562,42.969,44.922,84.473,3.418,65.918,35.76756,38.693388,9.8945,4.115252,18.89955055,11.44929616,66.66004086,13.46338996,0.147045792,1.196341917,0.248488547,0.587445198,0.5642688,3.654422986,-0.723609943,1.471502056
1533222562,55.664,47.852,110.84,6.348,29.297,35.757796,38.701204,10.509736,4.099628,18.79217315,11.45212164,66.47115304,13.46236534,0.145221272,1.194269912,0.244853851,0.590617113,0.613611505,3.645574237,-0.718050543,1.475299701
1533222562,52.734,48.828,-11.23,7.324,94.727,35.765608,38.720736,10.859348,4.074236,18.78115141,11.45772392,66.69133925,13.45747799,0.145051498,1.191517113,0.230592724,0.594406109,0.619441846,3.630244652,-0.73771699,1.484479254
1533222562,41.992,50.781,-69.824,13.672,87.891,35.732404,38.765656,10.792944,4.078144,18.78783038,11.47085343,66.34508393,13.44532732,0.144556133,1.184679756,0.236166956,0.600325277,0.615060992,3.593876131,-0.724663491,1.504387097
1533222562,19.531,44.434,-48.828,7.812,23.438,35.566388,38.783236,10.427712,4.041032,18.76937898,11.49607848,66.41774885,13.4479848,0.148603461,1.169754326,0.234794944,0.599495862,0.62906364,3.52218332,-0.728422014,1.50046281
1533222562,18.066,40.527,50.293,-8.789,40.527,35.36912,38.794952,10.384744,3.906268,18.72818474,11.50139275,66.4938099,13.42471414,0.1637901,1.163990222,0.247244856,0.607379865,0.655436729,3.503065675,-0.731182847,1.535174352
1533222562,32.715,41.504,97.168,-0.488,-9.277,35.277324,38.808624,10.964824,3.791036,18.65128301,11.50167237,66.46444059,13.38350059,0.17437047,1.160843318,0.248614282,0.624563083,0.691863707,3.497618588,-0.727305078,1.595877846
1533222562,30.273,43.945,-16.113,12.695,-38.086,35.242168,38.828156,11.236308,3.74416,18.60741903,11.50285768,66.58685893,13.29618775,0.185261369,1.15694385,0.23257022,0.637950272,0.724889328,3.489340168,-0.743478778,1.69405887
1533222562,28.32,48.34,-67.871,7.812,-17.09,35.18162,38.86136,11.248028,3.691424,18.60854245,11.50743443,66.33607205,13.24374341,0.190828454,1.150790868,0.23443742,0.642206891,0.725439071,3.471170459,-0.72976232,1.755249285
1533222562,39.062,46.875,-38.574,2.93,-23.438,35.080056,38.882844,11.105452,3.61916,18.60633196,11.52290789,66.3217771,13.20095138,0.200180838,1.139719143,0.234846633,0.65163616,0.729732392,3.424794969,-0.729245778,1.816203631
1533222562,55.176,43.945,43.945,1.465,-53.711,35.009744,38.904328,10.931624,3.548848,18.51498541,11.53285749,66.39065617,13.15521185,0.203787641,1.132447796,0.238939502,0.665854063,0.783275342,3.39487816,-0.735452168,1.886410727
1533222562,68.848,55.664,101.562,8.301,1.465,34.964824,38.937532,11.3242,3.462912,18.40438784,11.53728168,66.24682476,13.11937005,0.189582304,1.125856094,0.242743137,0.680937875,0.812390656,3.376628259,-0.71984645,1.947229763
1533222562,59.57,58.105,25.879,10.742,41.504,34.898416,38.955108,11.865216,3.33596,18.30739606,11.57361112,66.49246379,13.01678724,0.165198232,1.117324048,0.232465033,0.684177345,0.793140721,3.300320195,-0.745484447,2.056467815
1533222562,38.086,54.688,-18.555,4.395,56.641,34.88084,39.009796,11.978496,3.28518,18.1870367,11.59944421,66.05526037,12.78747717,0.142478045,1.115196077,0.237084106,0.637419275,0.802922424,3.257023943,-0.738382991,2.100705836
1533222562,44.922,59.57,-12.207,3.418,72.266,34.89842,39.105496,11.92576,3.29104,18.18180285,11.64135377,65.9783592,12.7578115,0.145252835,1.098958832,0.235181824,0.648842941,0.807789726,3.159483721,-0.731708187,2.153497647
1533222562,59.57,61.523,-18.066,5.859,4.395,34.890608,39.179712,11.554668,3.26174,18.18940722,11.71170918,65.99245535,12.75753359,0.142707835,1.076559518,0.237267323,0.647500836,0.801142588,3.014815178,-0.732838962,2.15273916
1533222562,61.035,55.176,115.234,8.301,11.23,34.89256,39.236352,11.859356,3.234396,18.17834258,11.79478301,65.89877936,12.74312482,0.141669426,1.062596181,0.251428465,0.654792073,0.805768041,2.872340941,-0.717364642,2.180848637
1533222562,51.758,53.223,88.867,7.812,37.598,34.874984,39.316432,12.585916,3.183612,18.18113463,11.83755797,66.20186887,12.72486194,0.141941074,1.04662328,0.24933272,0.661074968,0.804623457,2.78061587,-0.73971257,2.213591669
1533222562,32.715,47.363,-59.082,0,0,34.822252,39.388696,12.623024,3.103532,18.16261469,11.86426559,66.04548292,12.68090587,0.142051283,1.02632374,0.240352757,0.670042367,0.816203367,2.70764586,-0.747684612,2.28347902
1533222562,32.715,41.016,-22.461,-4.883,-2.441,34.76366,39.449244,12.484352,3.00978,18.14961537,11.85801059,66.00241307,12.6372952,0.150229477,1.013225929,0.241407843,0.68652886,0.828416266,2.69322361,-0.745845562,2.361787717
1533222562,50.293,40.527,46.875,-5.371,-12.695,34.708972,39.492212,12.367164,2.900404,18.13260369,11.82735769,66.0396991,12.60911345,0.159079175,1.011686287,0.246742455,0.705149918,0.844025337,2.724638678,-0.748607735,2.422567881
1533222562,61.035,44.434,121.094,2.441,1.465,34.730456,39.5469,12.939432,2.839856,18.06466878,11.81160914,65.95216684,12.5624686,0.155507446,1.006957559,0.250028208,0.724237671,0.878742137,2.73861125,-0.737924388,2.50871844
1533222562,59.082,48.34,41.992,9.277,48.34,34.8203,39.613308,13.478492,2.820324,18.09286214,11.80267318,66.27291738,12.52787277,0.157372498,0.997169226,0.238740914,0.738359644,0.864665153,2.73610274,-0.76143206,2.576835585
1533222562,33.691,46.387,-66.406,1.953,25.879,34.826156,39.660184,13.3574,2.771496,18.15793818,11.80526526,65.95693745,12.51395161,0.150483307,0.9823451,0.234485651,0.74310099,0.819170178,2.708856787,-0.752714301,2.604088234
1533222562,14.648,43.457,-36.621,-1.465,62.5,34.703108,39.7012,13.396464,2.710948,18.15733454,11.80881591,66.07606812,12.49332596,0.149533791,0.970515857,0.2333215,0.755578434,0.819484611,2.686512211,-0.759940788,2.65054686
1533222562,23.438,45.41,57.129,0,48.34,34.53514,39.75784,13.447244,2.640636,18.18952715,11.80410472,66.04348432,12.47695475,0.162875247,0.961967512,0.23312079,0.770374334,0.802215173,2.68166884,-0.757413278,2.693163068
1533222562,29.785,42.48,141.602,3.906,6.348,34.419904,39.789088,13.779276,2.58204,18.09830064,11.79736046,66.07231875,12.44231826,0.172630175,0.951045804,0.231245748,0.786967496,0.852619138,2.675196301,-0.761525856,2.766733663
1533222562,26.367,44.434,62.988,12.695,44.922,34.349592,39.816432,14.376932,2.56446,18.03610706,11.79417022,66.50724288,12.4014971,0.184061441,0.944180479,0.23933997,0.8005025,0.898063735,2.671036272,-0.769617741,2.847601005
1533222562,10.742,47.363,-40.039,9.766,44.434,34.220684,39.84768,14.464824,2.550788,18.03308808,11.79699399,66.27408189,12.38395114,0.194988326,0.936765965,0.230253044,0.803898379,0.903539442,2.656808601,-0.766738716,2.879725666
1533222562,4.395,41.016,-39.551,2.441,74.707,34.050764,39.830104,14.345684,2.509772,18.0863329,11.80663041,66.18688164,12.37406279,0.205384906,0.927527365,0.231122456,0.807407613,0.874714961,2.628909439,-0.761431943,2.900518317
1533222562,16.113,38.574,4.883,3.906,46.875,33.89256,39.775416,14.144512,2.453132,18.16634047,11.80158627,66.25744331,12.35728595,0.211685943,0.932801144,0.233827213,0.818498846,0.842700662,2.644032057,-0.767675035,2.941932412
1533222562,29.785,39.062,109.375,1.953,43.457,33.785136,39.720728,14.38084,2.400396,18.14957265,11.77546933,66.20930848,12.31808637,0.227889688,0.948316198,0.242565095,0.832095375,0.860315402,2.707280849,-0.75872427,3.023354975
1533222562,28.32,41.504,75.684,4.883,66.895,33.722636,39.675808,14.968732,2.375008,18.09378018,11.74675794,66.44388368,12.29175974,0.239866436,0.963930301,0.240515979,0.845979695,0.903905416,2.775657934,-0.777275672,3.085413714
1533222562,12.695,38.086,-37.598,2.93,31.25,33.638652,39.603544,15.17576,2.339852,18.08552903,11.71823221,66.33294933,12.27999848,0.249816505,0.977049545,0.226838299,0.853193579,0.914161591,2.841338012,-0.779224358,3.114951531
1533222562,15.137,42.48,-41.016,1.953,25.879,33.558576,39.55862,15.05076,2.322272,18.1343603,11.67183161,66.08635238,12.265713,0.25549782,0.996074398,0.233801609,0.863056644,0.883895985,2.943862134,-0.772282255,3.152278136
1533222562,35.156,51.27,-34.18,10.254,13.184,33.490216,39.550808,14.552712,2.339852,18.1717936,11.63888214,66.16322772,12.26309452,0.262973346,1.009082557,0.236437957,0.867803527,0.860703984,3.01874684,-0.778936017,3.162562908
1533222562,48.34,47.363,28.32,7.812,32.715,33.433576,39.515652,14.183572,2.324224,18.13331601,11.63032607,66.06282736,12.27133253,0.27162349,1.01091053,0.252651299,0.862720813,0.893322406,3.035733337,-0.76345629,3.141586695
1533222562,48.34,42.969,84.473,6.348,55.664,33.433576,39.482448,14.61912,2.310552,18.06432246,11.59316694,65.72482421,12.26182403,0.269711818,1.019184266,0.256583625,0.8671318,0.931597298,3.110016488,-0.738553256,3.164009472
1533222562,28.32,38.574,-9.766,4.883,19.531,33.394512,39.437524,14.7324,2.306648,18.06432246,11.5712328,65.82872332,12.25539695,0.269711818,1.029533023,0.241105648,0.871107377,0.931597298,3.164363621,-0.754918444,3.180457564
1533222562,22.461,42.969,-41.504,1.953,-2.441,33.320292,39.42776,14.597632,2.285164,18.06478067,11.55278255,65.76199568,12.25441745,0.27606996,1.043343496,0.238508629,0.872218877,0.933600899,3.217846976,-0.7489519,3.183553407
1533222562,33.203,45.898,-7.812,-1.953,-1.953,33.22654,39.425804,14.320292,2.210944,18.07145748,11.54874537,65.84285542,12.25029331,0.28698433,1.046550711,0.241461058,0.878125541,0.932845243,3.229930943,-0.756052339,3.198058857
1533222562,42.48,40.527,71.777,-4.883,-33.203,33.13474,39.384788,14.388648,2.10938,18.01068149,11.54760331,65.79040875,12.21937447,0.296852842,1.047199532,0.253158566,0.89649683,0.981244499,3.232993953,-0.745552684,3.275614039
1533222562,49.316,41.504,87.402,-3.906,-1.465,33.136692,39.365256,14.83982,2.04102,17.90405421,11.52529783,65.84137706,12.17211375,0.294695071,1.060185585,0.251188768,0.917661932,1.041027193,3.293051898,-0.751900327,3.384383887
1533222562,41.504,46.387,-25.391,-8.301,31.738,33.162084,39.369164,14.93552,1.974612,17.90579857,11.51751847,65.95405138,12.15764873,0.294541518,1.066579366,0.235596453,0.934395494,1.039624245,3.316947237,-0.768676256,3.433572004
1533222562,20.508,41.504,-54.688,-13.184,44.922,33.082008,39.355492,14.806612,1.890628,17.91317312,11.51974329,65.87790052,12.16865497,0.290297884,1.065267508,0.234838352,0.945330017,1.03142631,3.310826848,-0.762700141,3.432840966
1533222562,14.648,36.621,-41.992,-13.184,77.148,32.94138,39.334008,14.443332,1.802736,17.92485899,11.51515392,65.98281774,12.20061719,0.301535445,1.069704176,0.235608951,0.950529534,1.027085961,3.325888065,-0.770604568,3.401208175
1533222562,35.645,38.574,27.344,-11.719,-2.93,32.871068,39.32424,14.290988,1.697268,17.93104283,11.51522557,66.04473844,12.22983308,0.317259091,1.07522366,0.248453219,0.957159672,1.032702045,3.333864239,-0.771760413,3.376635681
1533222562,24.902,34.668,64.453,-9.766,-27.832,32.81052,39.296896,14.540988,1.601564,17.88560049,11.51482879,65.97054065,12.23230484,0.325683034,1.077886449,0.254437455,0.972498589,1.072523636,3.338452816,-0.760660886,3.406219842
1533222562,12.207,34.18,-11.719,-9.277,18.555,32.732396,39.246116,14.619112,1.505864,17.88685903,11.51774805,66.04198259,12.22800265,0.335232835,1.083951815,0.243964968,0.989573634,1.075965496,3.342522358,-0.772970298,3.445135212
1533222562,10.254,35.645,-33.691,-13.184,29.785,32.601536,39.17776,14.580052,1.375004,17.93415228,11.51218698,65.999135,12.21910615,0.339623941,1.097352879,0.241957763,1.007638079,1.045821314,3.373800711,-0.76910954,3.492971926
1533222562,8.789,35.645,-47.852,-17.578,41.016,32.433568,39.134792,14.353488,1.259772,17.97845987,11.48247463,66.02492316,12.20045718,0.350471694,1.117210469,0.242683059,1.024581798,1.025391384,3.459432044,-0.7713671,3.565994053
1533222562,27.344,35.645,-5.859,-17.09,18.066,32.318336,39.109404,13.957004,1.140632,18.00407366,11.47548538,66.14195277,12.24297414,0.363658099,1.129454775,0.248354326,1.025277996,1.023894306,3.491772224,-0.780704532,3.535336915
1533222562,41.016,34.18,99.609,-5.859,-39.551,32.304664,39.076204,14.279268,1.037116,17.9437475,11.47615972,65.96388852,12.27612608,0.377317139,1.135769613,0.261501891,1.029551994,1.075836977,3.50044036,-0.758469678,3.522110028
1533222562,30.762,39.062,41.016,-2.441,-44.434,32.337868,39.074248,14.658176,0.96876,17.93577944,11.47837513,66.18526529,12.22529474,0.379339309,1.143436134,0.252933926,1.052385574,1.08369225,3.508896371,-0.782408027,3.644696129
1533222562,3.906,42.48,-40.527,-16.602,46.875,32.287084,39.101588,14.591772,0.855476,17.92516352,11.47833556,66.0655063,12.19662753,0.375079632,1.14396302,0.24164801,1.071052688,1.090242233,3.509778826,-0.776359522,3.725585697
1533222562,8.789,39.551,-48.828,-22.461,92.285,32.18552,39.113308,14.22654,0.699224,17.9877992,11.47827477,66.11277004,12.22786151,0.36643632,1.136991593,0.242617878,1.076121529,1.060488268,3.498873547,-0.780311384,3.711838663
1533222562,35.645,42.969,16.602,-18.066,13.672,32.109348,39.117216,14.027324,0.548836,18.04864769,11.47722758,66.21022434,12.27532707,0.370821864,1.134255796,0.254370116,1.065893134,1.025624378,3.496535651,-0.784715328,3.704633552
1533222562,49.805,45.41,104.98,-13.184,-12.695,32.109348,39.12698,14.47068,0.419928,17.99339716,11.47837799,66.12746857,12.27399277,0.379161103,1.13297474,0.262448198,1.074207387,1.072103856,3.492384427,-0.771859021,3.759821827
1533222562,38.574,43.457,-5.859,-14.16,41.016,32.126924,39.136744,14.652324,0.318368,17.99339716,11.48270503,66.36474197,12.24818257,0.379161103,1.129636378,0.249969806,1.093198848,1.072103856,3.478958951,-0.79665432,3.848492554
1533222562,17.578,41.504,-102.539,-16.602,23.926,32.082,39.146512,14.292948,0.238288,17.99757345,11.48535527,66.24612364,12.26344261,0.376125314,1.126482543,0.246862236,1.104592266,1.066860478,3.469130305,-0.787319876,3.856784447
1533222562,27.344,36.621,-43.457,-16.113,42.48,31.970672,39.080104,14.091776,0.099616,18.01989172,11.48632984,66.63761369,12.30840345,0.380163468,1.123659495,0.237106302,1.101625559,1.052127303,3.463041522,-0.795456034,3.800163839
1533222562,42.48,38.574,56.152,-15.625,53.711,31.82614,38.960964,13.9199,-0.099604,17.96252516,11.45256249,66.73605779,12.29649724,0.393883061,1.143603321,0.242557111,1.116034838,1.10307503,3.557403633,-0.803427537,3.869666484
1533222562,47.363,45.41,112.305,-14.16,0.977,31.7402,38.886744,13.966776,-0.275384,17.72957755,11.30067161,66.57131813,12.14464797,0.361399211,1.151812106,0.244755394,1.1097847,1.139975253,3.782420286,-0.789007551,4.050387272
1533222562,41.016,43.945,14.648,-14.16,-30.273,31.712856,38.816432,14.22068,-0.414056,17.60100759,11.19624159,66.63668275,12.02783028,0.349253015,1.160072394,0.24603195,1.118071341,1.192104597,3.96951619,-0.790741093,4.24574557
1533222562,25.391,41.504,-61.523,-15.137,15.625,31.673796,38.748072,14.183572,-0.513668,17.58117547,11.10836555,66.51728006,11.98702991,0.352618494,1.173089394,0.239221607,1.137121455,1.210848292,4.153026839,-0.781641405,4.368275693
1533222562,30.273,39.551,-58.105,-15.137,12.695,31.574184,38.679712,13.798808,-0.634764,17.58434227,11.03853293,66.55708451,12.00555152,0.358927135,1.190996539,0.238543887,1.147024539,1.211062603,4.324055895,-0.783683223,4.36812612
1533222562,40.039,42.969,-29.297,-14.648,-4.395,31.449184,38.628932,13.222636,-0.773436,17.52109368,10.98004262,66.69624334,11.99973492,0.370248833,1.211441799,0.249159404,1.162904419,1.267766836,4.48355855,-0.791178507,4.426738528
1533222562,49.316,44.434,87.891,-14.648,83.496,31.437464,38.613308,13.388652,-0.882808,17.34723019,10.93042251,66.4423762,11.96033605,0.355175817,1.227121018,0.262949033,1.182137595,1.340233911,4.620198752,-0.769051799,4.55161237
1533222562,43.457,42.969,50.781,-11.719,29.297,31.46676,38.58206,13.841776,-1.001948,17.33410799,10.91927165,66.57728995,11.96169827,0.355469491,1.232972033,0.25902334,1.197289348,1.350595544,4.656436484,-0.783783179,4.592975769
1533222562,21.484,40.527,-64.941,-15.625,-4.883,31.435508,38.546904,13.867168,-1.087884,17.34825898,10.89546313,66.44407978,11.92046792,0.350759529,1.244365845,0.246713575,1.220679969,1.334799548,4.73206075,-0.779376469,4.724598131
1533222562,11.23,39.551,-61.035,-18.066,48.828,31.345664,38.533232,13.607404,-1.142568,17.35921729,10.87484929,66.41262141,11.94821593,0.354778152,1.257362184,0.247676884,1.225758571,1.326797421,4.80368866,-0.778443154,4.697053261
1533222562,20.996,41.504,-48.828,-18.066,35.156,31.220664,38.529328,13.003888,-1.232412,17.40555941,10.87141548,66.57853637,11.99460687,0.361220158,1.262087979,0.251878111,1.213981967,1.295399166,4.819928466,-0.79037822,4.616963511
1533222562,36.621,37.109,62.5,-16.602,35.645,31.179648,38.501984,12.994124,-1.318352,17.36702853,10.87016765,66.45732776,12.0370075,0.377483836,1.263497664,0.267823572,1.212125842,1.336585536,4.825331754,-0.774267796,4.562017478
1533222562,39.551,39.551,72.266,-11.719,4.883,31.191368,38.482452,13.441392,-1.388664,17.34199944,10.86508659,66.44984534,12.0698232,0.383417685,1.272371676,0.26809848,1.214913437,1.362845076,4.852772784,-0.773357621,4.525114576
1533222562,25.391,42.969,-41.504,-12.695,27.344,31.181604,38.500032,13.457016,-1.445304,17.34668099,10.85876708,66.47106015,12.07904031,0.381394148,1.279377779,0.252362648,1.22630456,1.357230877,4.880122342,-0.782431567,4.532616866
1533222562,17.578,40.039,-51.758,-16.602,86.426,31.162072,38.517608,13.457016,-1.505852,17.34926629,10.86247294,66.45762929,12.0987882,0.382803762,1.273459651,0.252328159,1.231110266,1.355531932,4.861050672,-0.781458037,4.509736938
1533222562,31.25,44.922,-31.25,-18.066,59.082,31.117152,38.54886,13.146468,-1.597648,17.36186756,10.8613896,66.45762929,12.13670407,0.383938646,1.269032005,0.252328159,1.226810414,1.345831511,4.855820661,-0.781458037,4.450609675
1533222562,46.387,46.875,67.383,-7.812,33.203,31.095668,38.589876,12.945296,-1.6621,17.34698852,10.86855827,66.48452215,12.17491517,0.391634213,1.258663791,0.264425222,1.227324816,1.364221801,4.820751568,-0.779624458,4.408092784
1533222562,55.176,45.898,66.895,0.488,22.461,31.173792,38.630888,13.3535,-1.681632,17.324634,10.88059537,66.24261088,12.16494862,0.392827818,1.244927495,0.262831815,1.243645881,1.383143447,4.768283219,-0.766947287,4.457606807
1533222562,40.527,46.387,-44.434,-5.371,58.105,31.218712,38.679716,13.441388,-1.714836,17.38914782,10.88877087,66.25943803,12.15752874,0.385563317,1.232038982,0.247734442,1.25002152,1.325864481,4.726733057,-0.775023376,4.483608979
1533222562,27.832,40.527,-100.098,-8.301,62.012,31.173792,38.666044,13.146464,-1.796868,17.3987823,10.89609897,66.16772697,12.15621867,0.37774934,1.21773876,0.249143077,1.258351928,1.312547803,4.684506551,-0.770107778,4.500726201
1533222562,37.109,39.062,-39.062,-5.859,32.715,31.037072,38.56448,12.71678,-1.951164,17.39294702,10.89160923,66.50931012,12.13106424,0.385539002,1.222603888,0.239461488,1.27987941,1.322229236,4.703252706,-0.777702349,4.591556128
1533222562,52.246,44.922,77.148,-6.836,41.504,30.820276,38.390652,12.52342,-2.203116,17.20972227,10.76786302,66.49817274,11.93405529,0.370902716,1.23816366,0.254846734,1.285348552,1.401031371,4.976827023,-0.770143846,4.886711635
1533222562,57.617,49.316,38.086,0,50.781,30.685508,38.199244,12.429672,-2.445304,16.58605084,10.30111883,66.23871956,11.35322102,0.081870417,1.008367928,0.250429381,1.017027675,0.363600929,4.349055537,-0.762386985,3.903501729
1533222562,43.945,49.316,-39.062,0.488,51.758,30.658164,38.113304,12.328112,-2.585932,16.22554528,9.627098752,66.18565569,10.63215252,-0.078950777,0.380024065,0.253906279,0.474958139,-0.091116984,0.963603566,-0.754780048,1.035702818
1533222562,27.832,45.898,-22.949,-4.883,78.125,30.611288,38.082052,12.414052,-2.656244,16.19727901,9.428751618,66.24532204,10.35521969,-0.079769869,0.271356642,0.256203604,0.353766068,-0.078967748,0.740409047,-0.76000466,0.754369378
1533222562,27.344,44.922,-52.246,-4.395,69.824,30.509728,38.052756,11.95702,-2.695308,16.18839454,9.389712202,66.18529791,10.31062672,-0.071836892,0.268570713,0.254915181,0.365775642,-0.073737738,0.777797869,-0.754984563,0.810392089
1533222562,41.992,45.898,1.465,-4.395,16.602,30.417932,38.019552,11.509756,-2.759764,16.12858067,9.356710543,66.23590757,10.29858491,-0.064077043,0.268429496,0.269732638,0.376594832,-0.045981798,0.814824101,-0.752234166,0.832618631
1533222563,42.969,46.387,125,-4.883,11.23,30.373012,38.001976,12.14452,-2.820312,15.99659489,9.313813002,65.9257581,10.25835539,-0.087195197,0.264264325,0.27936061,0.388795004,-0.035502159,0.854934495,-0.724476833,0.887322499
1533222563,27.832,48.34,-7.812,-5.859,15.625,30.373012,38.015648,12.46288,-2.835936,15.94523215,9.293758636,66.25196475,10.22585579,-0.090976958,0.264171257,0.267914392,0.402039738,-0.016513981,0.878718256,-0.74614134,0.936120029
1533222563,10.254,48.34,-80.078,-10.742,0,30.316372,38.031272,12.392568,-2.86328,15.94523215,9.306484919,65.96228691,10.22750915,-0.090976958,0.262531202,0.270666332,0.40635604,-0.016513981,0.860772248,-0.732401063,0.936092622
1533222563,14.648,46.875,-22.461,-8.789,66.895,30.244104,38.058616,12.302724,-2.871092,15.99156648,9.320571604,66.05182174,10.23951276,-0.087329509,0.260453599,0.267570769,0.411145675,-0.042469502,0.840741667,-0.734691836,0.923378094
1533222563,40.039,44.922,47.363,-3.906,99.609,30.244104,38.084008,12.080068,-2.873044,16.02147883,9.336499247,66.0840138,10.24330013,-0.077000193,0.253666273,0.270724208,0.412448575,-0.062542242,0.814582335,-0.737375768,0.919167532
1533222563,52.246,45.898,88.379,1.465,41.504,30.298792,38.07424,12.523428,-2.9082,16.02147883,9.346533313,65.87053926,10.24345126,-0.077000193,0.246236627,0.273620186,0.413003053,-0.062542242,0.796503198,-0.718211658,0.919254163
1533222563,40.039,44.922,-9.766,5.859,58.105,30.355432,38.025412,12.755848,-2.927732,16.07327683,9.337043039,66.00998943,10.21325533,-0.07672748,0.247159604,0.258409248,0.418801188,-0.085555579,0.809184044,-0.738036824,0.960936817
1533222563,25.391,41.992,-99.121,3.906,73.242,30.339808,37.9551,12.316396,-2.962888,16.08258579,9.268663945,65.82782725,10.19169202,-0.086261664,0.235058588,0.257100229,0.420111216,-0.090693239,0.856532494,-0.725354141,0.987139358
1533222563,30.273,41.504,-55.176,4.395,27.344,30.27926,37.88674,12.080068,-3.025388,16.08551522,9.170726367,66.20694406,10.15266937,-0.083394976,0.213692775,0.253248117,0.421929746,-0.093136361,0.90664262,-0.73773187,1.033001019
1533222563,41.016,41.992,32.227,3.906,-13.184,30.210904,37.8301,11.816396,-3.080076,16.05702481,9.07950504,66.34239491,10.05827317,-0.075782916,0.195658797,0.258218681,0.405999314,-0.076631931,0.963407306,-0.748381209,1.086980162
1533222563,47.852,47.363,129.883,5.371,34.668,30.21872,37.822288,12.078116,-3.099608,15.97425401,9.008997498,66.12961511,9.982684362,-0.084194479,0.185945915,0.263967451,0.397621912,-0.053421336,1.02527702,-0.726376759,1.148273082
1533222563,34.668,44.434,35.156,4.883,37.109,30.207,37.792992,12.470692,-3.132812,15.98243628,8.999839796,66.46738365,9.961244279,-0.083928082,0.185534936,0.268735519,0.398886557,-0.057071737,1.036748997,-0.738033766,1.176495993
1533222563,12.207,35.645,-66.406,-4.395,29.297,30.044892,37.687524,12.345692,-3.265628,15.97807698,8.966151896,66.31189228,9.920499449,-0.082089921,0.18393822,0.258769981,0.398149281,-0.054229402,1.07789686,-0.729537638,1.223346253
1533222563,14.648,40.039,-40.039,-5.371,49.805,29.81442,37.558616,11.917956,-3.445316,15.95417654,8.834227594,66.43137661,9.711204303,-0.068940689,0.144933809,0.257781843,0.321743386,-0.049487167,1.103004469,-0.737050635,1.137840838
1533222563,30.273,45.898,32.715,0,25.391,29.640592,37.472676,11.535144,-3.576176,15.756756,8.558458283,66.42299679,9.32364567,-0.108993559,-0.061967116,0.273126026,0.029725079,-0.113083387,0.561469588,-0.72927554,0.04677685
1533222563,40.527,50.293,96.68,-3.906,9.766,29.605436,37.468768,11.8496,-3.650392,15.50808089,8.363421953,66.02346035,9.039334491,-0.172354813,-0.214904814,0.273533945,-0.182538258,-0.194190642,0.238157393,-0.706520309,-0.612105229
1533222563,37.598,53.223,17.578,-9.766,59.57,29.667936,37.517596,12.29296,-3.673832,15.47322157,8.357174875,66.24154127,8.96496833,-0.17356497,-0.217575397,0.265078579,-0.196091038,-0.179872846,0.239764678,-0.731075942,-0.607928174
1533222563,22.461,49.316,-82.52,-10.254,8.789,29.6777,37.574236,12.21874,-3.664068,15.47382507,8.413454402,65.90527246,8.973296305,-0.184715958,-0.204512844,0.265238811,-0.188927281,-0.177336762,0.208042954,-0.717812532,-0.61809163
1533222563,18.066,49.316,-66.406,-12.207,-36.133,29.623012,37.632828,12.041008,-3.652348,15.46848197,8.445095701,66.00187333,8.964764785,-0.186243501,-0.211377899,0.261719668,-0.190236617,-0.17333765,0.18082385,-0.719980974,-0.611061867
1533222563,32.715,48.34,20.508,-13.184,28.809,29.607388,37.701188,11.8164,-3.642584,15.48532778,8.475610003,66.15396581,8.951611123,-0.176672517,-0.219082414,0.261805877,-0.190031502,-0.18708955,0.155700158,-0.730480913,-0.603462062
